#%Name: Ripidolite
#%Empirical formula:
#%Mineral group: 
#%Xtal system: 
#%Edge: K
#%Ref/notes:Fe reference from Jacob Frommer and Andreas Vogelin (ETH-Zurich). 
#%Ref/notes:The smectite, illite and chlorite come from the Clay Mineral Society and are characterized by their designations SWy2, IMt1 and CCa2.
#%Ref/notes:The .xmu files are as-recieved from ETH.  All other files have had an energy shift of 1.15eV applied to bring
#%Ref/notes:them into line with our standard of Fe metal = 7110.75eV.
#%Ref/notes:The .b files are done with Manceau E0 (halfway up the edge) and k^3 weighting.
#%Ref/notes:Pre-edge subtraction: In k-space&Background remove, do Transmission Fit, then polish with Transmission+Edge fit to yield .t files.
#%Ref/notes:Post-edge normalization (.e):  Since these are long transmission scans, we get a curvy background. This background is straigher when we make the transformation x = E^(-2.7), which is a rough approximation for how absorption goes with energy.  Thus, we read the .t file into 2-Column Editor, make this transformation (which can be done in 3 mouse clicks), and run a linear background through the tail of the data.  Divide by this and go back to E (another 3 clicks) and run a 2nd-order polynomial through the data, choosing the start point so that the background goes nicely through the tail.  This removes a small amount of curvature from the far post-edge region.  Divide by the resulting background and the result is the .e file.
===============================
6.9772500E+3 6.0611567E-4
6.9792100E+3 6.2569120E-4
6.9811710E+3 6.4014970E-4
6.9831860E+3 6.8205839E-4
6.9851510E+3 7.2895878E-4
6.9870940E+3 7.3195885E-4
6.9890790E+3 7.1275259E-4
6.9910460E+3 7.2816328E-4
6.9930220E+3 7.5465210E-4
6.9950590E+3 6.6482983E-4
6.9970960E+3 8.1166105E-4
6.9991210E+3 8.2264788E-4
7.0011800E+3 8.2994185E-4
7.0031520E+3 8.7052658E-4
7.0051540E+3 9.3482534E-4
7.0071510E+3 9.5111796E-4
7.0091070E+3 1.0137119E-3
7.0111070E+3 1.0021081E-3
7.0130920E+3 1.0554581E-3
7.0150450E+3 1.0025144E-3
7.0170920E+3 1.0502910E-3
7.0191150E+3 1.0986683E-3
7.0211400E+3 1.0821575E-3
7.0231180E+3 1.0867897E-3
7.0251170E+3 1.1688528E-3
7.0270970E+3 1.1171941E-3
7.0290610E+3 1.1710097E-3
7.0310440E+3 1.2071513E-3
7.0330010E+3 1.2220739E-3
7.0350170E+3 1.2198202E-3
7.0370070E+3 1.2519868E-3
7.0390710E+3 1.2862974E-3
7.0410830E+3 1.3211019E-3
7.0431340E+3 1.4209499E-3
7.0451310E+3 1.4434348E-3
7.0471310E+3 1.4856305E-3
7.0490970E+3 1.5089912E-3
7.0510960E+3 1.6326254E-3
7.0530330E+3 1.5796227E-3
7.0550440E+3 1.7655074E-3
7.0570260E+3 1.7790770E-3
7.0591010E+3 1.8323379E-3
7.0611030E+3 1.9906916E-3
7.0631540E+3 1.9961246E-3
7.0651530E+3 2.0810064E-3
7.0671560E+3 2.1824189E-3
7.0691270E+3 2.3311585E-3
7.0711020E+3 2.5042545E-3
7.0730740E+3 2.5648935E-3
7.0750380E+3 2.7342263E-3
7.0770400E+3 2.8940832E-3
7.0790280E+3 3.0783066E-3
7.0810690E+3 3.2465175E-3
7.0831020E+3 3.4119177E-3
7.0851050E+3 3.6812274E-3
7.0871280E+3 3.9756856E-3
7.0890910E+3 4.3729182E-3
7.0910830E+3 4.7140937E-3
7.0930550E+3 5.2475870E-3
7.0950150E+3 5.7137481E-3
7.0969920E+3 6.4449319E-3
7.0972210E+3 6.4796443E-3
7.0974670E+3 6.6143921E-3
7.0977250E+3 6.7741616E-3
7.0980100E+3 6.8694742E-3
7.0982490E+3 6.9409666E-3
7.0985050E+3 7.0592413E-3
7.0987320E+3 7.1562593E-3
7.0989520E+3 7.2727332E-3
7.0991830E+3 7.3560876E-3
7.0994620E+3 7.5756257E-3
7.0997470E+3 7.7107478E-3
7.1000280E+3 7.7780428E-3
7.1002730E+3 7.9549120E-3
7.1005010E+3 8.0386651E-3
7.1007420E+3 8.1289831E-3
7.1009930E+3 8.3075074E-3
7.1012450E+3 8.4648890E-3
7.1015200E+3 8.6668058E-3
7.1017890E+3 8.8101808E-3
7.1020300E+3 9.0221141E-3
7.1022740E+3 9.1437219E-3
7.1025310E+3 9.3572584E-3
7.1027810E+3 9.4959716E-3
7.1030270E+3 9.7121722E-3
7.1032700E+3 9.9303686E-3
7.1035310E+3 1.0100199E-2
7.1038050E+3 1.0370243E-2
7.1040780E+3 1.0596290E-2
7.1043420E+3 1.0835240E-2
7.1045870E+3 1.1127036E-2
7.1048070E+3 1.1329641E-2
7.1050350E+3 1.1557863E-2
7.1052910E+3 1.1771820E-2
7.1055720E+3 1.2150944E-2
7.1058470E+3 1.2497854E-2
7.1061110E+3 1.2871273E-2
7.1063390E+3 1.3161441E-2
7.1065690E+3 1.3470235E-2
7.1068010E+3 1.3844144E-2
7.1070470E+3 1.4145913E-2
7.1073090E+3 1.4614200E-2
7.1075980E+3 1.5130536E-2
7.1078520E+3 1.5743327E-2
7.1080840E+3 1.6175453E-2
7.1083340E+3 1.6778121E-2
7.1085740E+3 1.7474090E-2
7.1088040E+3 1.8343856E-2
7.1090470E+3 1.9322584E-2
7.1092990E+3 2.0450404E-2
7.1095660E+3 2.1951528E-2
7.1098200E+3 2.3915193E-2
7.1100860E+3 2.6543815E-2
7.1103260E+3 2.9477896E-2
7.1105760E+3 3.2653449E-2
7.1107890E+3 3.5330165E-2
7.1110170E+3 3.7503225E-2
7.1112660E+3 3.9332396E-2
7.1115500E+3 4.0835249E-2
7.1118190E+3 4.1809174E-2
7.1120660E+3 4.2715788E-2
7.1122900E+3 4.3518994E-2
7.1125250E+3 4.4428230E-2
7.1127430E+3 4.5322302E-2
7.1130030E+3 4.6279396E-2
7.1132630E+3 4.7072706E-2
7.1135260E+3 4.7735973E-2
7.1137720E+3 4.8209856E-2
7.1140030E+3 4.8933267E-2
7.1142430E+3 4.9900282E-2
7.1144930E+3 5.1395540E-2
7.1147260E+3 5.3338350E-2
7.1149650E+3 5.5850536E-2
7.1152110E+3 5.9053831E-2
7.1154710E+3 6.3030888E-2
7.1157140E+3 6.7909868E-2
7.1159920E+3 7.5208856E-2
7.1162310E+3 8.3430897E-2
7.1164750E+3 9.3771674E-2
7.1166930E+3 1.0617868E-1
7.1169170E+3 1.2018756E-1
7.1171680E+3 1.3746408E-1
7.1174520E+3 1.5901765E-1
7.1177260E+3 1.8336415E-1
7.1179710E+3 2.0929437E-1
7.1182020E+3 2.3831814E-1
7.1184210E+3 2.7112088E-1
7.1186540E+3 3.0981176E-1
7.1189060E+3 3.5685660E-1
7.1191650E+3 4.0586630E-1
7.1194380E+3 4.5805573E-1
7.1196960E+3 5.0848141E-1
7.1199290E+3 5.5287457E-1
7.1201760E+3 5.9644950E-1
7.1204170E+3 6.3540308E-1
7.1206620E+3 6.6980542E-1
7.1209110E+3 7.0056936E-1
7.1211810E+3 7.3043755E-1
7.1214440E+3 7.5933291E-1
7.1216910E+3 7.8993295E-1
7.1219520E+3 8.2767812E-1
7.1222150E+3 8.7056661E-1
7.1224460E+3 9.1624110E-1
7.1226810E+3 9.6766308E-1
7.1229220E+3 1.0210106E+0
7.1231790E+3 1.0756592E+0
7.1234640E+3 1.1317466E+0
7.1237510E+3 1.1870608E+0
7.1240060E+3 1.2323097E+0
7.1242510E+3 1.2690870E+0
7.1244860E+3 1.2983959E+0
7.1247090E+3 1.3200798E+0
7.1249590E+3 1.3368921E+0
7.1252390E+3 1.3496735E+0
7.1255240E+3 1.3589902E+0
7.1257810E+3 1.3654504E+0
7.1260190E+3 1.3707943E+0
7.1262500E+3 1.3768197E+0
7.1264720E+3 1.3846914E+0
7.1267310E+3 1.3981077E+0
7.1269920E+3 1.4171201E+0
7.1272670E+3 1.4426226E+0
7.1275400E+3 1.4749836E+0
7.1277720E+3 1.5098256E+0
7.1280250E+3 1.5514075E+0
7.1282630E+3 1.5934676E+0
7.1285060E+3 1.6339706E+0
7.1287520E+3 1.6645857E+0
7.1290090E+3 1.6817974E+0
7.1292570E+3 1.6833316E+0
7.1295080E+3 1.6695500E+0
7.1297650E+3 1.6397808E+0
7.1300150E+3 1.5942093E+0
7.1302570E+3 1.5400245E+0
7.1305060E+3 1.4793803E+0
7.1307320E+3 1.4225566E+0
7.1309740E+3 1.3687192E+0
7.1312350E+3 1.3167493E+0
7.1315170E+3 1.2652664E+0
7.1317620E+3 1.2215859E+0
7.1320140E+3 1.1826498E+0
7.1322380E+3 1.1508407E+0
7.1324540E+3 1.1227172E+0
7.1326860E+3 1.0970585E+0
7.1329420E+3 1.0739336E+0
7.1332110E+3 1.0540000E+0
7.1334770E+3 1.0364799E+0
7.1337200E+3 1.0218051E+0
7.1339520E+3 1.0094709E+0
7.1341910E+3 9.9780522E-1
7.1344400E+3 9.8676883E-1
7.1346800E+3 9.7655830E-1
7.1349300E+3 9.6747827E-1
7.1352100E+3 9.5887173E-1
7.1354560E+3 9.5144551E-1
7.1356820E+3 9.4469700E-1
7.1359200E+3 9.3787036E-1
7.1361660E+3 9.3139544E-1
7.1363960E+3 9.2579553E-1
7.1366360E+3 9.2057185E-1
7.1368740E+3 9.1643703E-1
7.1371310E+3 9.1297530E-1
7.1373900E+3 9.1018137E-1
7.1376580E+3 9.0820722E-1
7.1379140E+3 9.0709213E-1
7.1381430E+3 9.0684297E-1
7.1383770E+3 9.0771154E-1
7.1385990E+3 9.0947937E-1
7.1388260E+3 9.1196667E-1
7.1391000E+3 9.1581235E-1
7.1393760E+3 9.2035560E-1
7.1396300E+3 9.2537266E-1
7.1398820E+3 9.3094421E-1
7.1400990E+3 9.3608635E-1
7.1403210E+3 9.4152975E-1
7.1405480E+3 9.4677588E-1
7.1408160E+3 9.5197915E-1
7.1410920E+3 9.5599332E-1
7.1413660E+3 9.5910127E-1
7.1416270E+3 9.6104675E-1
7.1418530E+3 9.6196326E-1
7.1420950E+3 9.6163014E-1
7.1423320E+3 9.6033552E-1
7.1425960E+3 9.5768657E-1
7.1428430E+3 9.5439624E-1
7.1431230E+3 9.4986900E-1
7.1433760E+3 9.4503844E-1
7.1436160E+3 9.3943091E-1
7.1438550E+3 9.3316593E-1
7.1441080E+3 9.2592993E-1
7.1443620E+3 9.1775945E-1
7.1446050E+3 9.0985794E-1
7.1448550E+3 9.0224143E-1
7.1451280E+3 8.9452925E-1
7.1453880E+3 8.8672929E-1
7.1456610E+3 8.7842953E-1
7.1459250E+3 8.7039203E-1
7.1461660E+3 8.6280005E-1
7.1464090E+3 8.5553872E-1
7.1466400E+3 8.4913357E-1
7.1468930E+3 8.4274727E-1
7.1471550E+3 8.3699522E-1
7.1474500E+3 8.3075938E-1
7.1477030E+3 8.2557642E-1
7.1479500E+3 8.2074628E-1
7.1481810E+3 8.1611775E-1
7.1484050E+3 8.1233997E-1
7.1486390E+3 8.0887282E-1
7.1488960E+3 8.0579743E-1
7.1491940E+3 8.0317198E-1
7.1494590E+3 8.0109424E-1
7.1497200E+3 7.9966505E-1
7.1499610E+3 7.9864520E-1
7.1501780E+3 7.9824427E-1
7.1504130E+3 7.9836138E-1
7.1506540E+3 7.9885513E-1
7.1509370E+3 7.9998314E-1
7.1512020E+3 8.0157347E-1
7.1514690E+3 8.0359389E-1
7.1516960E+3 8.0564198E-1
7.1519240E+3 8.0817691E-1
7.1521750E+3 8.1118360E-1
7.1524080E+3 8.1434096E-1
7.1526500E+3 8.1752219E-1
7.1529190E+3 8.2114583E-1
7.1532000E+3 8.2460965E-1
7.1534390E+3 8.2793742E-1
7.1536780E+3 8.3155431E-1
7.1539420E+3 8.3563787E-1
7.1541770E+3 8.3945177E-1
7.1544000E+3 8.4327650E-1
7.1546460E+3 8.4733890E-1
7.1548890E+3 8.5108078E-1
7.1551380E+3 8.5517636E-1
7.1554000E+3 8.5927873E-1
7.1556750E+3 8.6405075E-1
7.1559130E+3 8.6844473E-1
7.1561460E+3 8.7271232E-1
7.1563740E+3 8.7716758E-1
7.1566050E+3 8.8133369E-1
7.1568480E+3 8.8571857E-1
7.1580690E+3 9.0680439E-1
7.1592550E+3 9.2779672E-1
7.1604470E+3 9.5126552E-1
7.1617400E+3 9.7520659E-1
7.1629680E+3 9.9631769E-1
7.1642620E+3 1.0119385E+0
7.1655870E+3 1.0190305E+0
7.1668770E+3 1.0178460E+0
7.1682470E+3 1.0104640E+0
7.1696610E+3 1.0030227E+0
7.1709980E+3 1.0045138E+0
7.1723670E+3 1.0114577E+0
7.1737570E+3 1.0230665E+0
7.1751830E+3 1.0386087E+0
7.1765420E+3 1.0503719E+0
7.1779920E+3 1.0568587E+0
7.1794320E+3 1.0597488E+0
7.1808310E+3 1.0607266E+0
7.1823190E+3 1.0590681E+0
7.1838470E+3 1.0540579E+0
7.1853420E+3 1.0475785E+0
7.1868600E+3 1.0413318E+0
7.1884330E+3 1.0342757E+0
7.1900670E+3 1.0243910E+0
7.1916860E+3 1.0115555E+0
7.1932470E+3 9.9769759E-1
7.1948240E+3 9.8470760E-1
7.1964540E+3 9.7395194E-1
7.1980860E+3 9.6521396E-1
7.1997600E+3 9.5788484E-1
7.2013760E+3 9.5260847E-1
7.2029940E+3 9.4922722E-1
7.2046930E+3 9.4840129E-1
7.2064410E+3 9.4989641E-1
7.2081620E+3 9.5268148E-1
7.2099440E+3 9.5642207E-1
7.2117520E+3 9.6132553E-1
7.2135410E+3 9.6719766E-1
7.2153350E+3 9.7269954E-1
7.2171510E+3 9.7672891E-1
7.2189690E+3 9.7851631E-1
7.2207840E+3 9.7874718E-1
7.2226410E+3 9.7830750E-1
7.2245090E+3 9.7681873E-1
7.2263830E+3 9.7500440E-1
7.2282770E+3 9.7400485E-1
7.2301750E+3 9.7456599E-1
7.2321200E+3 9.7709387E-1
7.2341140E+3 9.8176211E-1
7.2361270E+3 9.8844504E-1
7.2381090E+3 9.9765994E-1
7.2401000E+3 1.0088803E+0
7.2420880E+3 1.0199761E+0
7.2441100E+3 1.0283179E+0
7.2461060E+3 1.0322953E+0
7.2481040E+3 1.0324088E+0
7.2501800E+3 1.0301277E+0
7.2522810E+3 1.0275154E+0
7.2544110E+3 1.0253561E+0
7.2565860E+3 1.0237318E+0
7.2587380E+3 1.0220890E+0
7.2609380E+3 1.0196953E+0
7.2630910E+3 1.0166801E+0
7.2652170E+3 1.0132023E+0
7.2674200E+3 1.0098772E+0
7.2695880E+3 1.0070181E+0
7.2717970E+3 1.0044804E+0
7.2740340E+3 1.0019752E+0
7.2762980E+3 9.9955791E-1
7.2786150E+3 9.9700085E-1
7.2809620E+3 9.9433325E-1
7.2832970E+3 9.9153958E-1
7.2856220E+3 9.8897530E-1
7.2879370E+3 9.8756202E-1
7.2902530E+3 9.8762471E-1
7.2925790E+3 9.8902309E-1
7.2949210E+3 9.9101803E-1
7.2972980E+3 9.9301153E-1
7.2998200E+3 9.9444619E-1
7.3022830E+3 9.9515132E-1
7.3047460E+3 9.9547894E-1
7.3072170E+3 9.9607015E-1
7.3096590E+3 9.9734200E-1
7.3121560E+3 9.9903821E-1
7.3146350E+3 1.0008033E+0
7.3171490E+3 1.0024608E+0
7.3196620E+3 1.0038277E+0
7.3222380E+3 1.0047711E+0
7.3249180E+3 1.0054665E+0
7.3275120E+3 1.0058998E+0
7.3300960E+3 1.0059847E+0
7.3326770E+3 1.0056788E+0
7.3353090E+3 1.0051310E+0
7.3379340E+3 1.0042939E+0
7.3405700E+3 1.0034807E+0
7.3432380E+3 1.0031009E+0
7.3460130E+3 1.0034138E+0
7.3487920E+3 1.0042705E+0
7.3514820E+3 1.0052437E+0
7.3542580E+3 1.0059944E+0
7.3570110E+3 1.0060680E+0
7.3597100E+3 1.0053850E+0
7.3624660E+3 1.0043660E+0
7.3652840E+3 1.0034917E+0
7.3681250E+3 1.0028372E+0
7.3710160E+3 1.0026048E+0
7.3739440E+3 1.0027340E+0
7.3767720E+3 1.0029598E+0
7.3796790E+3 1.0031316E+0
7.3825400E+3 1.0030899E+0
7.3853900E+3 1.0025921E+0
7.3883420E+3 1.0019188E+0
7.3913010E+3 1.0008082E+0
7.3943060E+3 9.9931144E-1
7.3973580E+3 9.9799002E-1
7.4002760E+3 9.9655944E-1
7.4032960E+3 9.9544312E-1
7.4062830E+3 9.9452676E-1
7.4092570E+3 9.9392305E-1
7.4123580E+3 9.9392776E-1
7.4154430E+3 9.9449898E-1
7.4186330E+3 9.9577384E-1
7.4217010E+3 9.9712740E-1
7.4248220E+3 9.9841500E-1
7.4279220E+3 9.9915878E-1
7.4309980E+3 9.9953228E-1
7.4341590E+3 9.9964228E-1
7.4373430E+3 9.9978047E-1
7.4406220E+3 1.0004061E+0
7.4438400E+3 1.0011913E+0
7.4470990E+3 1.0020271E+0
7.4502890E+3 1.0026672E+0
7.4535460E+3 1.0031377E+0
7.4567360E+3 1.0034809E+0
7.4600610E+3 1.0037206E+0
7.4633850E+3 1.0038272E+0
7.4667600E+3 1.0038512E+0
7.4701160E+3 1.0037370E+0
7.4734610E+3 1.0033002E+0
7.4768060E+3 1.0026206E+0
7.4801240E+3 1.0015799E+0
7.4835560E+3 1.0005731E+0
7.4869700E+3 9.9953346E-1
7.4904920E+3 9.9876566E-1
7.4938780E+3 9.9819690E-1
7.4973650E+3 9.9814826E-1
7.5007830E+3 9.9815383E-1
7.5042150E+3 9.9819550E-1
7.5077080E+3 9.9834910E-1
7.5113040E+3 9.9799427E-1
7.5149140E+3 9.9855328E-1
7.5184530E+3 9.9861471E-1
7.5219620E+3 9.9874365E-1
7.5255290E+3 9.9902788E-1
7.5290500E+3 9.9918967E-1
7.5327220E+3 9.9946313E-1
7.5364260E+3 9.9983645E-1
7.5400620E+3 1.0000052E+0
7.5437320E+3 1.0003083E+0
7.5473620E+3 1.0003873E+0
7.5509940E+3 1.0003824E+0
7.5547250E+3 1.0004805E+0
7.5584500E+3 1.0004649E+0
7.5622300E+3 1.0004185E+0
7.5660570E+3 1.0003734E+0
7.5697800E+3 1.0001512E+0
7.5734720E+3 9.9988697E-1
7.5772520E+3 9.9980707E-1
7.5810990E+3 9.9983070E-1
7.5849750E+3 9.9979375E-1
7.5888560E+3 1.0000166E+0
7.5927170E+3 1.0002125E+0
7.5965290E+3 1.0003411E+0
7.6003650E+3 1.0004906E+0
7.6042590E+3 1.0006117E+0
7.6082750E+3 1.0006636E+0
7.6122370E+3 1.0007130E+0
7.6162070E+3 1.0007636E+0
7.6201570E+3 1.0007534E+0
7.6240720E+3 1.0006787E+0
7.6280150E+3 1.0005551E+0
7.6320960E+3 1.0005080E+0
7.6362270E+3 1.0004541E+0
7.6402990E+3 1.0004166E+0
7.6443070E+3 1.0002528E+0
7.6483350E+3 1.0001314E+0
7.6524430E+3 9.9993539E-1
7.6566110E+3 9.9968912E-1
7.6608370E+3 9.9946567E-1
7.6649240E+3 9.9918225E-1
7.6690530E+3 9.9908655E-1
7.6732100E+3 9.9906039E-1
7.6773660E+3 9.9903843E-1
7.6816070E+3 9.9895963E-1
7.6859160E+3 9.9883035E-1
7.6901330E+3 9.9875731E-1
7.6943650E+3 9.9876934E-1
7.6986200E+3 9.9877882E-1
7.7028800E+3 9.9884487E-1
7.7072490E+3 9.9890386E-1
7.7116420E+3 9.9905209E-1
7.7159560E+3 9.9916671E-1
7.7202570E+3 1.0000527E+0
7.7245700E+3 1.0010019E+0
7.7289620E+3 1.0010144E+0
7.7334090E+3 1.0002602E+0
7.7378920E+3 1.0000504E+0
7.7423560E+3 1.0000257E+0
7.7467320E+3 9.9970741E-1
7.7511010E+3 9.9946227E-1
7.7555440E+3 9.9926854E-1
