#%Name: Chromite
#%Empirical formula: Fe2+Cr2O4  / Webmineral
#%Mineral group: spinel, oxides
#%Xtal system: cubic
#%Edge: K
#%Sample prep: powder on kapton tape
#%Beamline: ALS 10.3.2, HxV slits = 70x20 um
#%Det:  I0=N2, Fluorescence mode (Ge solid state 7elts)
#%Ref/notes:  none
#%Temp: Room temp (28 degC)
#%Time&date: 12:34 AM 2/25/2007
#%Provider: Peter Nico, Matthew A. Marcus, Sirine Fakra.
#%============================================================
7.0107057E+3 1.0534763E-3
7.0157056E+3 7.6284807E-4
7.0207056E+3 6.3659608E-4
7.0257055E+3 1.7015937E-3
7.0307054E+3 1.6892191E-3
7.0357054E+3 1.0820673E-3
7.0407053E+3 1.6126409E-3
7.0457052E+3 1.6322496E-3
7.0507052E+3 3.0838477E-3
7.0557051E+3 1.5655022E-3
7.0607050E+3 2.0032127E-3
7.0657050E+3 1.9084629E-3
7.0707049E+3 1.4372329E-3
7.0757048E+3 2.4252882E-3
7.0807048E+3 2.9806444E-3
7.0857047E+3 3.2319246E-3
7.0907046E+3 5.2965518E-3
7.0957046E+3 6.7639788E-3
7.0962046E+3 6.4151572E-3
7.0967046E+3 6.6339632E-3
7.0972046E+3 6.9090490E-3
7.0977046E+3 6.5516010E-3
7.0982045E+3 6.6180077E-3
7.0987045E+3 6.8280933E-3
7.0992045E+3 8.7450063E-3
7.0997045E+3 6.5645186E-3
7.1002045E+3 7.9362870E-3
7.1007045E+3 8.6187722E-3
7.1012045E+3 9.3141761E-3
7.1017045E+3 9.2295246E-3
7.1022045E+3 9.9119050E-3
7.1027045E+3 1.0626929E-2
7.1032045E+3 1.0781332E-2
7.1037045E+3 1.1002340E-2
7.1042045E+3 1.3312848E-2
7.1047045E+3 1.1893115E-2
7.1052045E+3 1.1424083E-2
7.1057044E+3 1.4006357E-2
7.1062044E+3 1.6033976E-2
7.1067044E+3 1.5385949E-2
7.1072044E+3 1.5984720E-2
7.1077044E+3 1.7744208E-2
7.1082044E+3 1.8613972E-2
7.1087044E+3 2.1176694E-2
7.1092044E+3 2.5640613E-2
7.1097044E+3 3.1220576E-2
7.1102044E+3 4.2453389E-2
7.1107044E+3 6.6331604E-2
7.1112044E+3 8.5690976E-2
7.1117044E+3 8.9079340E-2
7.1122044E+3 8.1158046E-2
7.1127044E+3 7.8387392E-2
7.1132043E+3 7.3166815E-2
7.1137043E+3 6.8871583E-2
7.1142043E+3 7.2361497E-2
7.1147043E+3 7.9077870E-2
7.1152043E+3 9.2728258E-2
7.1157043E+3 1.2067690E-1
7.1162043E+3 1.4238478E-1
7.1167043E+3 1.6409227E-1
7.1172043E+3 1.9477497E-1
7.1177043E+3 2.3841767E-1
7.1182043E+3 2.9726426E-1
7.1187043E+3 3.9180419E-1
7.1192043E+3 4.9771554E-1
7.1197043E+3 5.9510928E-1
7.1202043E+3 6.5369008E-1
7.1207042E+3 6.6535503E-1
7.1212042E+3 6.5784393E-1
7.1217042E+3 6.5136692E-1
7.1222042E+3 6.7104793E-1
7.1227042E+3 7.2802071E-1
7.1232042E+3 8.0238461E-1
7.1237042E+3 8.6474952E-1
7.1242042E+3 9.3319549E-1
7.1247042E+3 9.8009923E-1
7.1252042E+3 1.0050627E+0
7.1257042E+3 1.0096162E+0
7.1262042E+3 1.0197730E+0
7.1267042E+3 1.0345759E+0
7.1272042E+3 1.0659798E+0
7.1277042E+3 1.1189094E+0
7.1282041E+3 1.1779420E+0
7.1287041E+3 1.2487913E+0
7.1292041E+3 1.3166645E+0
7.1297041E+3 1.3613639E+0
7.1302041E+3 1.3941552E+0
7.1307041E+3 1.4062664E+0
7.1312041E+3 1.3861857E+0
7.1317041E+3 1.3615443E+0
7.1322041E+3 1.3280232E+0
7.1327041E+3 1.2935699E+0
7.1332041E+3 1.2595890E+0
7.1337041E+3 1.2325137E+0
7.1342041E+3 1.2145568E+0
7.1347041E+3 1.1977667E+0
7.1352041E+3 1.1813107E+0
7.1357040E+3 1.1601792E+0
7.1362040E+3 1.1527534E+0
7.1367040E+3 1.1365796E+0
7.1372040E+3 1.1147641E+0
7.1377040E+3 1.1019862E+0
7.1382040E+3 1.0918471E+0
7.1387040E+3 1.0748297E+0
7.1392040E+3 1.0604191E+0
7.1397040E+3 1.0537900E+0
7.1402040E+3 1.0384084E+0
7.1407040E+3 1.0291215E+0
7.1417040E+3 1.0168847E+0
7.1427040E+3 1.0156500E+0
7.1437039E+3 1.0160930E+0
7.1447039E+3 1.0043602E+0
7.1457039E+3 9.9508164E-1
7.1467039E+3 9.7299421E-1
7.1477039E+3 9.4866689E-1
7.1487039E+3 9.2812433E-1
7.1497039E+3 9.0885697E-1
7.1507038E+3 9.0033100E-1
7.1517038E+3 8.9440320E-1
7.1527038E+3 8.9159133E-1
7.1537038E+3 8.9220250E-1
7.1547038E+3 8.9229763E-1
7.1557038E+3 8.8575883E-1
7.1567038E+3 8.7576084E-1
7.1577038E+3 8.7253522E-1
7.1587037E+3 8.7224671E-1
7.1597037E+3 8.6540193E-1
7.1607037E+3 8.7324714E-1
7.1617037E+3 8.7115028E-1
7.1627037E+3 8.7698865E-1
7.1637037E+3 8.7548635E-1
7.1647037E+3 8.7770560E-1
7.1657036E+3 8.8736923E-1
7.1667036E+3 8.9114114E-1
7.1677036E+3 9.0084779E-1
7.1687036E+3 9.1725367E-1
7.1697036E+3 9.2882592E-1
7.1707036E+3 9.3953098E-1
7.1717036E+3 9.5342822E-1
7.1727036E+3 9.6658447E-1
7.1737035E+3 9.7559056E-1
7.1747035E+3 9.8889166E-1
7.1757035E+3 9.9996172E-1
7.1767035E+3 1.0047854E+0
7.1777035E+3 1.0176976E+0
7.1787035E+3 1.0267710E+0
7.1797035E+3 1.0369340E+0
7.1807034E+3 1.0408267E+0
7.1817034E+3 1.0491690E+0
7.1827034E+3 1.0522944E+0
7.1837034E+3 1.0669349E+0
7.1847034E+3 1.0647175E+0
7.1857034E+3 1.0646092E+0
7.1867034E+3 1.0613180E+0
7.1877033E+3 1.0637053E+0
7.1887033E+3 1.0633088E+0
7.1897033E+3 1.0667637E+0
7.1907033E+3 1.0661522E+0
7.1917033E+3 1.0709093E+0
7.1927033E+3 1.0708517E+0
7.1937033E+3 1.0744844E+0
7.1947033E+3 1.0735701E+0
7.1957032E+3 1.0725698E+0
7.1967032E+3 1.0622816E+0
7.1977032E+3 1.0499246E+0
7.1987032E+3 1.0329341E+0
7.1997032E+3 1.0251663E+0
7.2007032E+3 1.0100342E+0
7.2017032E+3 1.0040841E+0
7.2027031E+3 9.8826226E-1
7.2037031E+3 9.8038315E-1
7.2047031E+3 9.7567039E-1
7.2057031E+3 9.6642480E-1
7.2067031E+3 9.6555010E-1
7.2077031E+3 9.5715001E-1
7.2087031E+3 9.5458368E-1
7.2097031E+3 9.5544176E-1
7.2107030E+3 9.5323104E-1
7.2127447E+3 9.5332836E-1
7.2147863E+3 9.6385037E-1
7.2168280E+3 9.7228887E-1
7.2188696E+3 9.7939360E-1
7.2209112E+3 9.8537120E-1
7.2229529E+3 9.8553840E-1
7.2249945E+3 9.8664064E-1
7.2270361E+3 9.9058008E-1
7.2290778E+3 9.9141460E-1
7.2311194E+3 9.9204408E-1
7.2331611E+3 9.9141427E-1
7.2352027E+3 9.8653147E-1
7.2372443E+3 9.8452973E-1
7.2392860E+3 9.7701351E-1
7.2413276E+3 9.7381468E-1
7.2433693E+3 9.7090248E-1
7.2454109E+3 9.6552555E-1
7.2474525E+3 9.6467460E-1
7.2494942E+3 9.6046605E-1
7.2515358E+3 9.6284208E-1
7.2535775E+3 9.6746162E-1
7.2556191E+3 9.7473583E-1
7.2576607E+3 9.8482238E-1
7.2597024E+3 9.9381071E-1
7.2602024E+3 9.9952787E-1
7.2607024E+3 1.0044303E+0
7.2612023E+3 1.0058622E+0
7.2617023E+3 1.0148277E+0
7.2622023E+3 1.0103926E+0
7.2627023E+3 1.0135035E+0
7.2632023E+3 1.0125409E+0
7.2637023E+3 1.0140257E+0
7.2642023E+3 1.0211825E+0
7.2647023E+3 1.0360302E+0
7.2652023E+3 1.0259428E+0
7.2657023E+3 1.0293304E+0
7.2662023E+3 1.0334456E+0
7.2667023E+3 1.0288284E+0
7.2672023E+3 1.0323879E+0
7.2677023E+3 1.0293314E+0
7.2682023E+3 1.0401597E+0
7.2687022E+3 1.0399509E+0
7.2692022E+3 1.0378997E+0
7.2697022E+3 1.0388359E+0
7.2747022E+3 1.0426138E+0
7.2797021E+3 1.0302530E+0
7.2847020E+3 1.0135353E+0
7.2897020E+3 1.0072240E+0
7.2947019E+3 9.9346210E-1
7.2997018E+3 9.9223492E-1
7.3047018E+3 9.8363396E-1
7.3097017E+3 9.8424522E-1
7.3147016E+3 9.8379655E-1
7.3197015E+3 9.8532667E-1
7.3247015E+3 9.8898135E-1
7.3297014E+3 9.9687239E-1
7.3347013E+3 1.0052897E+0
7.3397013E+3 9.9603870E-1
7.3447012E+3 9.9074279E-1
7.3497011E+3 9.9005178E-1
7.3547011E+3 9.9280305E-1
7.3597010E+3 9.9088797E-1
7.3647009E+3 9.8976022E-1
7.3697009E+3 1.0007340E+0
7.3747008E+3 1.0043345E+0
7.3797007E+3 1.0072425E+0
7.3847006E+3 9.9687454E-1
7.3897006E+3 1.0016896E+0
7.3947005E+3 9.9896660E-1
7.3997004E+3 1.0077235E+0
7.4047004E+3 1.0037168E+0
7.4097003E+3 9.9859946E-1
7.4147002E+3 9.9318724E-1
