#%Name: Ferrosmectite
#%Empirical formula: 
#%Mineral group: clays
#%Xtal system: 
#%Edge: K
#%Sample prep: 
#%Beamline: SSRL
#%Det: fluorescence mode
#%Ref/notes: iron-bearing montmorillonite sample from Joe Stucki at Univ. Illinois- USA. Raman confirmed.
#%Temp: Room temp
#%Time&date:
#%Provider: Thomas Borch, Colleen Hansel, Scott Fendorf
#%===================================================================
6.8798750E+3 1.8163769E-3
6.8901133E+3 1.7141362E-3
6.9003511E+3 1.7457310E-3
6.9105894E+3 1.9321893E-3
6.9208271E+3 1.8084831E-3
6.9310654E+3 2.1902019E-3
6.9413037E+3 2.2085680E-3
6.9515415E+3 2.4018774E-3
6.9617798E+3 2.4325473E-3
6.9720181E+3 2.5909267E-3
6.9822559E+3 2.7927584E-3
6.9924941E+3 2.9059511E-3
7.0027319E+3 3.1116914E-3
7.0129702E+3 3.6291426E-3
7.0232085E+3 3.8242160E-3
7.0334463E+3 4.2320241E-3
7.0436846E+3 4.6337095E-3
7.0539229E+3 5.5069481E-3
7.0641606E+3 6.0132161E-3
7.0743989E+3 7.0165432E-3
7.0846367E+3 8.7467605E-3
7.0948750E+3 1.1518687E-2
7.0951250E+3 1.1448826E-2
7.0953750E+3 1.1566220E-2
7.0956250E+3 1.1867035E-2
7.0958750E+3 1.1760997E-2
7.0961250E+3 1.1958962E-2
7.0963750E+3 1.2123639E-2
7.0966250E+3 1.2184800E-2
7.0968750E+3 1.2275777E-2
7.0971250E+3 1.2334931E-2
7.0973750E+3 1.2462889E-2
7.0976250E+3 1.2557348E-2
7.0978750E+3 1.2857094E-2
7.0981250E+3 1.2832997E-2
7.0983750E+3 1.3025720E-2
7.0986250E+3 1.3014986E-2
7.0988750E+3 1.3236381E-2
7.0991250E+3 1.3379005E-2
7.0993750E+3 1.3512739E-2
7.0996250E+3 1.3607632E-2
7.0998750E+3 1.3946713E-2
7.1001250E+3 1.3897642E-2
7.1003750E+3 1.4044919E-2
7.1006250E+3 1.4191435E-2
7.1008750E+3 1.4372351E-2
7.1011250E+3 1.4618063E-2
7.1013750E+3 1.4732083E-2
7.1016250E+3 1.4871058E-2
7.1018750E+3 1.5013355E-2
7.1021250E+3 1.5216030E-2
7.1023750E+3 1.5473126E-2
7.1026250E+3 1.5606516E-2
7.1028750E+3 1.5775711E-2
7.1031250E+3 1.6125253E-2
7.1033750E+3 1.6215631E-2
7.1036250E+3 1.6547433E-2
7.1038750E+3 1.6750661E-2
7.1041250E+3 1.6889155E-2
7.1043750E+3 1.7196706E-2
7.1046250E+3 1.7402485E-2
7.1048750E+3 1.7676593E-2
7.1051250E+3 1.7970249E-2
7.1053750E+3 1.8333150E-2
7.1056250E+3 1.8545234E-2
7.1058750E+3 1.8729791E-2
7.1061250E+3 1.9225034E-2
7.1063750E+3 1.9610538E-2
7.1066250E+3 1.9835215E-2
7.1068750E+3 2.0211369E-2
7.1071250E+3 2.0664716E-2
7.1073750E+3 2.1038089E-2
7.1076250E+3 2.1510498E-2
7.1078750E+3 2.1868061E-2
7.1081250E+3 2.2454863E-2
7.1083750E+3 2.2987521E-2
7.1086250E+3 2.3679160E-2
7.1088750E+3 2.4311915E-2
7.1091250E+3 2.5186335E-2
7.1093750E+3 2.6034532E-2
7.1096250E+3 2.7202492E-2
7.1098750E+3 2.8394417E-2
7.1101250E+3 2.9882996E-2
7.1103750E+3 3.1531601E-2
7.1106250E+3 3.3876407E-2
7.1108750E+3 3.6893881E-2
7.1111250E+3 4.0155549E-2
7.1113750E+3 4.4228819E-2
7.1116250E+3 4.8831206E-2
7.1118750E+3 5.3798807E-2
7.1121250E+3 5.8659470E-2
7.1123750E+3 6.3254095E-2
7.1126250E+3 6.7611403E-2
7.1128750E+3 7.1069651E-2
7.1131250E+3 7.2876948E-2
7.1133750E+3 7.3904237E-2
7.1136250E+3 7.3710878E-2
7.1138750E+3 7.2710580E-2
7.1141250E+3 7.1001564E-2
7.1143750E+3 6.8416298E-2
7.1146250E+3 6.6100432E-2
7.1148750E+3 6.3315133E-2
7.1151250E+3 6.1641364E-2
7.1153750E+3 6.0118069E-2
7.1156250E+3 5.9649038E-2
7.1158750E+3 5.9999312E-2
7.1161250E+3 6.0734563E-2
7.1163750E+3 6.2264706E-2
7.1166250E+3 6.4109517E-2
7.1168750E+3 6.6189948E-2
7.1171250E+3 6.8649792E-2
7.1173750E+3 7.1904851E-2
7.1176250E+3 7.4886079E-2
7.1178750E+3 7.8935979E-2
7.1181250E+3 8.2898727E-2
7.1183750E+3 8.8137849E-2
7.1186250E+3 9.3662347E-2
7.1188750E+3 1.0067294E-1
7.1191250E+3 1.0810754E-1
7.1193750E+3 1.1782621E-1
7.1196250E+3 1.2782642E-1
7.1198750E+3 1.4004529E-1
7.1201250E+3 1.5377337E-1
7.1203750E+3 1.6957305E-1
7.1206250E+3 1.8693297E-1
7.1208750E+3 2.0693012E-1
7.1211250E+3 2.2831001E-1
7.1213750E+3 2.5324302E-1
7.1216250E+3 2.7968304E-1
7.1218750E+3 3.0680122E-1
7.1221250E+3 3.3692204E-1
7.1223750E+3 3.6944772E-1
7.1226250E+3 4.0316668E-1
7.1228750E+3 4.3487608E-1
7.1231250E+3 4.6911559E-1
7.1233750E+3 5.0126821E-1
7.1236250E+3 5.3440152E-1
7.1238750E+3 5.6392938E-1
7.1241250E+3 5.9601850E-1
7.1243750E+3 6.2508650E-1
7.1246250E+3 6.5812651E-1
7.1248750E+3 6.8887513E-1
7.1251250E+3 7.2477995E-1
7.1253750E+3 7.5894876E-1
7.1256250E+3 7.9962330E-1
7.1258750E+3 8.3647675E-1
7.1261250E+3 8.8028848E-1
7.1263750E+3 9.2105404E-1
7.1266250E+3 9.6360429E-1
7.1268750E+3 9.9911336E-1
7.1271250E+3 1.0399940E+0
7.1273750E+3 1.0727987E+0
7.1276250E+3 1.1052138E+0
7.1278750E+3 1.1295548E+0
7.1281250E+3 1.1548161E+0
7.1283750E+3 1.1738769E+0
7.1286250E+3 1.1933273E+0
7.1288750E+3 1.2084469E+0
7.1291250E+3 1.2252411E+0
7.1293750E+3 1.2389406E+0
7.1296250E+3 1.2537900E+0
7.1298750E+3 1.2675169E+0
7.1301250E+3 1.2812592E+0
7.1303750E+3 1.2959751E+0
7.1306250E+3 1.3089558E+0
7.1308750E+3 1.3208647E+0
7.1311250E+3 1.3332862E+0
7.1313750E+3 1.3425349E+0
7.1316250E+3 1.3506899E+0
7.1318750E+3 1.3558496E+0
7.1321250E+3 1.3586241E+0
7.1323750E+3 1.3592520E+0
7.1326250E+3 1.3573227E+0
7.1328750E+3 1.3530160E+0
7.1331250E+3 1.3474508E+0
7.1333750E+3 1.3402674E+0
7.1336250E+3 1.3315123E+0
7.1338750E+3 1.3221863E+0
7.1341250E+3 1.3121732E+0
7.1343750E+3 1.3010050E+0
7.1346250E+3 1.2902569E+0
7.1348750E+3 1.2792007E+0
7.1351250E+3 1.2681565E+0
7.1353750E+3 1.2578862E+0
7.1356250E+3 1.2489339E+0
7.1358750E+3 1.2392639E+0
7.1361250E+3 1.2311886E+0
7.1363750E+3 1.2229859E+0
7.1366250E+3 1.2162101E+0
7.1368750E+3 1.2099556E+0
7.1371250E+3 1.2032989E+0
7.1373750E+3 1.1977455E+0
7.1376250E+3 1.1921924E+0
7.1378750E+3 1.1863113E+0
7.1381250E+3 1.1812484E+0
7.1383750E+3 1.1755249E+0
7.1386250E+3 1.1708583E+0
7.1388750E+3 1.1652578E+0
7.1391250E+3 1.1606364E+0
7.1393750E+3 1.1560697E+0
7.1396250E+3 1.1514547E+0
7.1398750E+3 1.1463198E+0
7.1401250E+3 1.1422544E+0
7.1403750E+3 1.1377605E+0
7.1406250E+3 1.1334792E+0
7.1408750E+3 1.1287864E+0
7.1411250E+3 1.1250793E+0
7.1413750E+3 1.1209978E+0
7.1416250E+3 1.1180951E+0
7.1418750E+3 1.1143504E+0
7.1421250E+3 1.1114856E+0
7.1423750E+3 1.1085390E+0
7.1426250E+3 1.1071681E+0
7.1428750E+3 1.1041352E+0
7.1431250E+3 1.1038432E+0
7.1433750E+3 1.1023798E+0
7.1436250E+3 1.1014243E+0
7.1438750E+3 1.1008733E+0
7.1441250E+3 1.1007252E+0
7.1443750E+3 1.1000425E+0
7.1446250E+3 1.1000827E+0
7.1448750E+3 1.0996329E+0
7.1451250E+3 1.0986102E+0
7.1453750E+3 1.0972869E+0
7.1456250E+3 1.0955728E+0
7.1458750E+3 1.0937985E+0
7.1461250E+3 1.0915671E+0
7.1463750E+3 1.0879645E+0
7.1466250E+3 1.0837229E+0
7.1468750E+3 1.0795215E+0
7.1471250E+3 1.0738028E+0
7.1473750E+3 1.0679774E+0
7.1476250E+3 1.0618706E+0
7.1478750E+3 1.0543803E+0
7.1481250E+3 1.0479790E+0
7.1483750E+3 1.0406436E+0
7.1486250E+3 1.0329313E+0
7.1488750E+3 1.0255082E+0
7.1491250E+3 1.0182606E+0
7.1493750E+3 1.0101231E+0
7.1496250E+3 1.0018448E+0
7.1498750E+3 9.9484457E-1
7.1501250E+3 9.8682874E-1
7.1503750E+3 9.7956670E-1
7.1506250E+3 9.7242844E-1
7.1508750E+3 9.6538697E-1
7.1511250E+3 9.5851105E-1
7.1513750E+3 9.5246163E-1
7.1516250E+3 9.4631856E-1
7.1518750E+3 9.4067232E-1
7.1521250E+3 9.3489067E-1
7.1523750E+3 9.3003231E-1
7.1526250E+3 9.2443624E-1
7.1528750E+3 9.1992924E-1
7.1531250E+3 9.1456015E-1
7.1533750E+3 9.1031028E-1
7.1536250E+3 9.0578673E-1
7.1538750E+3 9.0166934E-1
7.1541250E+3 8.9709430E-1
7.1543750E+3 8.9346985E-1
7.1546250E+3 8.8960869E-1
7.1548750E+3 8.8602731E-1
7.1551250E+3 8.8228206E-1
7.1553750E+3 8.7927597E-1
7.1556250E+3 8.7553031E-1
7.1558750E+3 8.7240008E-1
7.1561250E+3 8.6947853E-1
7.1563750E+3 8.6662242E-1
7.1566250E+3 8.6395459E-1
7.1568750E+3 8.6127208E-1
7.1571250E+3 8.5871774E-1
7.1573750E+3 8.5651000E-1
7.1576250E+3 8.5404067E-1
7.1578750E+3 8.5265190E-1
7.1581250E+3 8.5044670E-1
7.1583750E+3 8.4906599E-1
7.1586250E+3 8.4720990E-1
7.1588750E+3 8.4594699E-1
7.1591250E+3 8.4466832E-1
7.1593750E+3 8.4397088E-1
7.1596250E+3 8.4296432E-1
7.1598750E+3 8.4187475E-1
7.1609697E+3 8.4147978E-1
7.1620845E+3 8.4444566E-1
7.1632183E+3 8.5144382E-1
7.1643721E+3 8.6236860E-1
7.1655454E+3 8.7716389E-1
7.1667388E+3 8.9443663E-1
7.1679512E+3 9.1381367E-1
7.1691836E+3 9.3382490E-1
7.1704351E+3 9.5416469E-1
7.1717065E+3 9.7451002E-1
7.1729980E+3 9.9519741E-1
7.1743086E+3 1.0156521E+0
7.1756387E+3 1.0318149E+0
7.1769888E+3 1.0424984E+0
7.1783584E+3 1.0505412E+0
7.1797476E+3 1.0567036E+0
7.1811567E+3 1.0603022E+0
7.1825850E+3 1.0616131E+0
7.1840332E+3 1.0605571E+0
7.1855010E+3 1.0592858E+0
7.1869883E+3 1.0575198E+0
7.1884951E+3 1.0565793E+0
7.1900215E+3 1.0549380E+0
7.1915679E+3 1.0541022E+0
7.1931338E+3 1.0531388E+0
7.1947192E+3 1.0521236E+0
7.1963242E+3 1.0502038E+0
7.1979487E+3 1.0472497E+0
7.1995933E+3 1.0426233E+0
7.2012568E+3 1.0368259E+0
7.2029404E+3 1.0307373E+0
7.2046436E+3 1.0240310E+0
7.2063667E+3 1.0172390E+0
7.2081089E+3 1.0102539E+0
7.2098711E+3 1.0031405E+0
7.2116528E+3 9.9711206E-1
7.2134541E+3 9.9245663E-1
7.2152749E+3 9.8888321E-1
7.2171152E+3 9.8736757E-1
7.2189756E+3 9.8790309E-1
7.2208555E+3 9.8946710E-1
7.2227549E+3 9.9107301E-1
7.2246738E+3 9.9220936E-1
7.2266123E+3 9.9195585E-1
7.2285708E+3 9.9066720E-1
7.2305483E+3 9.8867527E-1
7.2325459E+3 9.8667928E-1
7.2345630E+3 9.8413616E-1
7.2366001E+3 9.8165471E-1
7.2386562E+3 9.8068494E-1
7.2407324E+3 9.8066975E-1
7.2428281E+3 9.8163989E-1
7.2449434E+3 9.8409964E-1
7.2470781E+3 9.8783959E-1
7.2492324E+3 9.9252226E-1
7.2514067E+3 9.9848580E-1
7.2536006E+3 1.0047965E+0
7.2558140E+3 1.0112910E+0
7.2580469E+3 1.0171709E+0
7.2602993E+3 1.0221549E+0
7.2625718E+3 1.0263122E+0
7.2648633E+3 1.0290316E+0
7.2671748E+3 1.0309388E+0
7.2695059E+3 1.0315873E+0
7.2718569E+3 1.0324097E+0
7.2742271E+3 1.0321258E+0
7.2766172E+3 1.0321039E+0
7.2790269E+3 1.0308812E+0
7.2814561E+3 1.0297927E+0
7.2839048E+3 1.0276923E+0
7.2863730E+3 1.0248206E+0
7.2888613E+3 1.0213737E+0
7.2913691E+3 1.0168399E+0
7.2938965E+3 1.0127432E+0
7.2964434E+3 1.0076748E+0
7.2990098E+3 1.0032233E+0
7.3015962E+3 9.9961619E-1
7.3042017E+3 9.9671469E-1
7.3068271E+3 9.9502227E-1
7.3094722E+3 9.9450825E-1
7.3121372E+3 9.9488606E-1
7.3148213E+3 9.9634315E-1
7.3175254E+3 9.9806895E-1
7.3202485E+3 1.0000241E+0
7.3229917E+3 1.0020127E+0
7.3257549E+3 1.0038485E+0
7.3285371E+3 1.0047791E+0
7.3313394E+3 1.0053216E+0
7.3341606E+3 1.0054361E+0
7.3370020E+3 1.0056187E+0
7.3398633E+3 1.0046920E+0
7.3427437E+3 1.0044804E+0
7.3456436E+3 1.0035484E+0
7.3485635E+3 1.0029541E+0
7.3515029E+3 1.0023403E+0
7.3544619E+3 1.0014169E+0
7.3574404E+3 1.0010332E+0
7.3604390E+3 1.0007593E+0
7.3634565E+3 1.0006027E+0
7.3664941E+3 1.0007342E+0
7.3695513E+3 1.0013014E+0
7.3726279E+3 1.0025960E+0
7.3757246E+3 1.0037887E+0
7.3788403E+3 1.0057601E+0
7.3819761E+3 1.0072671E+0
7.3851313E+3 1.0090108E+0
7.3883062E+3 1.0099574E+0
7.3915010E+3 1.0106730E+0
7.3947148E+3 1.0112241E+0
7.3979487E+3 1.0109599E+0
7.4012021E+3 1.0101152E+0
7.4044751E+3 1.0087582E+0
7.4077676E+3 1.0068063E+0
7.4110796E+3 1.0048720E+0
7.4144116E+3 1.0022839E+0
7.4177632E+3 1.0002718E+0
7.4211343E+3 9.9843939E-1
7.4245249E+3 9.9686842E-1
7.4279351E+3 9.9566553E-1
7.4313652E+3 9.9471601E-1
7.4348149E+3 9.9429623E-1
7.4382842E+3 9.9405102E-1
7.4417729E+3 9.9432735E-1
7.4452812E+3 9.9433596E-1
7.4488096E+3 9.9497393E-1
7.4523569E+3 9.9548615E-1
7.4559243E+3 9.9622541E-1
7.4595112E+3 9.9664496E-1
7.4631182E+3 9.9785505E-1
7.4667441E+3 9.9883111E-1
7.4703901E+3 9.9973132E-1
7.4740552E+3 1.0007304E+0
7.4777402E+3 1.0014662E+0
7.4814453E+3 1.0017018E+0
7.4851694E+3 1.0016398E+0
7.4889136E+3 1.0016691E+0
7.4926768E+3 1.0012926E+0
7.4964600E+3 1.0007234E+0
7.5002627E+3 9.9992617E-1
7.5040854E+3 9.9932795E-1
7.5079272E+3 9.9825875E-1
7.5117891E+3 9.9783566E-1
7.5156704E+3 9.9757166E-1
7.5195713E+3 9.9736280E-1
7.5234917E+3 9.9765480E-1
7.5274321E+3 9.9778760E-1
7.5313916E+3 9.9819349E-1
7.5353711E+3 9.9850793E-1
7.5393701E+3 9.9851737E-1
7.5433887E+3 9.9850078E-1
7.5474268E+3 9.9891409E-1
7.5514849E+3 9.9895231E-1
7.5555625E+3 9.9890226E-1
7.5596597E+3 9.9859829E-1
7.5637764E+3 9.9831479E-1
7.5679126E+3 9.9808342E-1
7.5720688E+3 9.9777441E-1
7.5762441E+3 9.9746266E-1
7.5804395E+3 9.9732800E-1
7.5846543E+3 9.9699817E-1
7.5888887E+3 9.9652710E-1
7.5931431E+3 9.9649098E-1
7.5974170E+3 9.9625357E-1
7.6017100E+3 9.9619547E-1
7.6060229E+3 9.9607998E-1
7.6103555E+3 9.9631648E-1
7.6147080E+3 9.9630383E-1
7.6190796E+3 9.9697627E-1
7.6234712E+3 9.9748477E-1
7.6278823E+3 9.9809832E-1
7.6323130E+3 9.9853527E-1
7.6367632E+3 9.9890672E-1
7.6412334E+3 9.9943332E-1
7.6457231E+3 9.9995653E-1
7.6502324E+3 1.0004102E+0
7.6547612E+3 1.0005606E+0
7.6593096E+3 1.0008859E+0
7.6638774E+3 1.0015514E+0
7.6684653E+3 1.0003004E+0
7.6730728E+3 9.9983626E-1
7.6776997E+3 1.0000837E+0
7.6823462E+3 1.0005317E+0
7.6870122E+3 9.9978810E-1
7.6916982E+3 9.9986484E-1
7.6964033E+3 9.9976894E-1
7.7011284E+3 9.9973834E-1
7.7058730E+3 9.9967702E-1
7.7106377E+3 9.9973821E-1
7.7154214E+3 1.0000323E+0
7.7202251E+3 1.0004634E+0
7.7250483E+3 9.9992527E-1
7.7298911E+3 1.0004290E+0
7.7347534E+3 9.9998447E-1
7.7396353E+3 1.0003459E+0
7.7445371E+3 1.0009103E+0
7.7494585E+3 1.0010062E+0
7.7543994E+3 1.0013780E+0
7.7593599E+3 1.0014343E+0
7.7643398E+3 1.0016233E+0
7.7693398E+3 1.0017080E+0
7.7743594E+3 1.0020274E+0
7.7793984E+3 1.0020742E+0
7.7844570E+3 1.0022288E+0
7.7895352E+3 1.0021322E+0
7.7946328E+3 1.0024681E+0
7.7997505E+3 1.0028333E+0
7.8048877E+3 1.0030707E+0
7.8100444E+3 1.0032153E+0
7.8152207E+3 1.0033319E+0
7.8204170E+3 1.0037586E+0
