#%Name: Fo40 forsterite, Fayalite-Forsterite Series
#%Empirical series formula: Fe2 2+ [SiO4]- Mg2[SiO4]
#%Mineral group: olivines
#%Xtal system: Orthorhombic
#%Edge: K 
#%Sample prep: powder on kapton tape
#%Beamline: ALS 10.3.2, HxV slits = 50x20 um
#%Det:  I0=N2, Fluorescence mode (Ge solid state 7elts)
#%Ref/notes:  sample provided by the National History Museum, London, UK.
#%Temp: Room temp (28C)
#%Time&date: 6:32 AM 02/19/2006
#%Provider: Anna Buttherworth, Sirine Fakra, Matthew A. Marcus.
#%==================================================
7.0103095E+3 -1.4574814E-3
7.0153088E+3 2.5769078E-3
7.0203081E+3 5.3210320E-3
7.0253075E+3 1.4870106E-3
7.0303068E+3 5.1377107E-3
7.0353062E+3 2.5141227E-3
7.0403055E+3 -6.6885219E-4
7.0453049E+3 7.4546278E-3
7.0503042E+3 6.6393249E-3
7.0553035E+3 7.4257762E-3
7.0603029E+3 3.8300787E-3
7.0653022E+3 7.5245262E-3
7.0703016E+3 5.7062559E-3
7.0753009E+3 1.6995349E-3
7.0803002E+3 5.6807113E-3
7.0852996E+3 5.7625447E-3
7.0902989E+3 6.6874995E-3
7.0952982E+3 1.1383824E-2
7.0957982E+3 1.1867877E-2
7.0962981E+3 1.1602446E-2
7.0967980E+3 1.3875411E-2
7.0972980E+3 1.8298203E-2
7.0977979E+3 1.3432913E-2
7.0982978E+3 1.2531336E-2
7.0987978E+3 1.8023621E-2
7.0992977E+3 1.4811870E-2
7.0997977E+3 1.8626899E-2
7.1002976E+3 1.1983318E-2
7.1007975E+3 1.5222587E-2
7.1012975E+3 1.3921274E-2
7.1017974E+3 1.7953228E-2
7.1022973E+3 2.1378785E-2
7.1027973E+3 2.1030905E-2
7.1032972E+3 1.8249070E-2
7.1037971E+3 1.8717258E-2
7.1042971E+3 1.4801142E-2
7.1047970E+3 1.6421169E-2
7.1052969E+3 2.2564435E-2
7.1057969E+3 2.0310385E-2
7.1062968E+3 2.4650395E-2
7.1067967E+3 2.3359530E-2
7.1072967E+3 2.5606345E-2
7.1077966E+3 2.4779845E-2
7.1082965E+3 2.6851208E-2
7.1087965E+3 2.9368465E-2
7.1092964E+3 3.1567546E-2
7.1097963E+3 3.7757802E-2
7.1102963E+3 4.7010569E-2
7.1107962E+3 5.4348608E-2
7.1112961E+3 5.6933812E-2
7.1117961E+3 5.7498996E-2
7.1122960E+3 5.5626282E-2
7.1127959E+3 5.6589147E-2
7.1132959E+3 6.1317099E-2
7.1137958E+3 5.7262018E-2
7.1142957E+3 6.2003715E-2
7.1147957E+3 6.9171617E-2
7.1152956E+3 7.5262241E-2
7.1157955E+3 8.9444844E-2
7.1162955E+3 1.1455566E-1
7.1167954E+3 1.5143205E-1
7.1172953E+3 2.0003073E-1
7.1177953E+3 2.6343765E-1
7.1182952E+3 3.4599573E-1
7.1187951E+3 4.4541983E-1
7.1192951E+3 5.4448198E-1
7.1197950E+3 6.1677870E-1
7.1202949E+3 6.9627607E-1
7.1207949E+3 7.7749263E-1
7.1212948E+3 8.4582957E-1
7.1217947E+3 9.2124976E-1
7.1222947E+3 1.0257975E+0
7.1227946E+3 1.1353870E+0
7.1232945E+3 1.2740086E+0
7.1237945E+3 1.3791875E+0
7.1242944E+3 1.4679876E+0
7.1247943E+3 1.5268889E+0
7.1252943E+3 1.5690191E+0
7.1257942E+3 1.6036383E+0
7.1262941E+3 1.6209721E+0
7.1267941E+3 1.6058000E+0
7.1272940E+3 1.5721681E+0
7.1277939E+3 1.5323615E+0
7.1282939E+3 1.4795898E+0
7.1287938E+3 1.4281975E+0
7.1292937E+3 1.3633220E+0
7.1297937E+3 1.3040993E+0
7.1302936E+3 1.2482447E+0
7.1307935E+3 1.1857697E+0
7.1312935E+3 1.1299870E+0
7.1317934E+3 1.0840659E+0
7.1322933E+3 1.0449967E+0
7.1327933E+3 1.0175526E+0
7.1332932E+3 9.9592576E-1
7.1337931E+3 9.8281161E-1
7.1342931E+3 9.7278800E-1
7.1347930E+3 9.6703819E-1
7.1352929E+3 9.5876710E-1
7.1357929E+3 9.4891735E-1
7.1362928E+3 9.3606960E-1
7.1367927E+3 9.3869775E-1
7.1372927E+3 9.4009901E-1
7.1377926E+3 9.4137592E-1
7.1382925E+3 9.4307480E-1
7.1387925E+3 9.4885564E-1
7.1392924E+3 9.5057594E-1
7.1397923E+3 9.4594652E-1
7.1402923E+3 9.4350446E-1
7.1412921E+3 9.3073982E-1
7.1422920E+3 9.2164738E-1
7.1432919E+3 9.0253432E-1
7.1442917E+3 8.8693113E-1
7.1452916E+3 8.6113718E-1
7.1462915E+3 8.4543064E-1
7.1472913E+3 8.2719508E-1
7.1482912E+3 8.1758315E-1
7.1492911E+3 8.1336747E-1
7.1502909E+3 8.1453893E-1
7.1512908E+3 8.2248938E-1
7.1522907E+3 8.3935544E-1
7.1532905E+3 8.5061543E-1
7.1542904E+3 8.6496223E-1
7.1552903E+3 8.7970213E-1
7.1562901E+3 8.9259607E-1
7.1572900E+3 9.0403319E-1
7.1582899E+3 9.1320370E-1
7.1592897E+3 9.2744333E-1
7.1602896E+3 9.4190746E-1
7.1612894E+3 9.6313981E-1
7.1622893E+3 9.7908695E-1
7.1632892E+3 9.9801997E-1
7.1642890E+3 1.0166762E+0
7.1652889E+3 1.0352543E+0
7.1662888E+3 1.0486212E+0
7.1672886E+3 1.0677379E+0
7.1682885E+3 1.0769390E+0
7.1692884E+3 1.0837302E+0
7.1702882E+3 1.0949668E+0
7.1712881E+3 1.0961258E+0
7.1722880E+3 1.0947053E+0
7.1732878E+3 1.0862900E+0
7.1742877E+3 1.0808700E+0
7.1752876E+3 1.0775282E+0
7.1762874E+3 1.0759543E+0
7.1772873E+3 1.0634729E+0
7.1782872E+3 1.0580147E+0
7.1792870E+3 1.0491050E+0
7.1802869E+3 1.0440021E+0
7.1812868E+3 1.0412751E+0
7.1822866E+3 1.0310184E+0
7.1832865E+3 1.0205398E+0
7.1842864E+3 1.0137642E+0
7.1852862E+3 1.0043394E+0
7.1862861E+3 1.0016731E+0
7.1872860E+3 9.9715987E-1
7.1882858E+3 9.8952634E-1
7.1892857E+3 9.8143228E-1
7.1902856E+3 9.7515599E-1
7.1912854E+3 9.7485668E-1
7.1922853E+3 9.6713829E-1
7.1932852E+3 9.6559575E-1
7.1942850E+3 9.6126301E-1
7.1952849E+3 9.5583016E-1
7.1962848E+3 9.5507253E-1
7.1972846E+3 9.5244911E-1
7.1982845E+3 9.5615334E-1
7.1992843E+3 9.5827807E-1
7.2002842E+3 9.5566097E-1
7.2012841E+3 9.6069906E-1
7.2022839E+3 9.5888252E-1
7.2032838E+3 9.5979084E-1
7.2042837E+3 9.6383620E-1
7.2052835E+3 9.6523204E-1
7.2062834E+3 9.6694028E-1
7.2072833E+3 9.6239208E-1
7.2082831E+3 9.6731295E-1
7.2092830E+3 9.7080066E-1
7.2102829E+3 9.7401302E-1
7.2122826E+3 9.8346244E-1
7.2142823E+3 9.9121659E-1
7.2162821E+3 1.0036425E+0
7.2182818E+3 1.0055226E+0
7.2202815E+3 1.0056309E+0
7.2222812E+3 1.0041967E+0
7.2242810E+3 1.0039367E+0
7.2262807E+3 9.9839645E-1
7.2282804E+3 9.9269142E-1
7.2302802E+3 9.8812001E-1
7.2322799E+3 9.7725999E-1
7.2342796E+3 9.7732740E-1
7.2362794E+3 9.7567629E-1
7.2382791E+3 9.8204683E-1
7.2402788E+3 9.8669627E-1
7.2422785E+3 9.9603132E-1
7.2442783E+3 1.0011065E+0
7.2462780E+3 1.0137667E+0
7.2482777E+3 1.0198586E+0
7.2502775E+3 1.0270337E+0
7.2522772E+3 1.0233806E+0
7.2542769E+3 1.0272255E+0
7.2547768E+3 1.0244971E+0
7.2552768E+3 1.0274350E+0
7.2557767E+3 1.0254357E+0
7.2562766E+3 1.0235540E+0
7.2567766E+3 1.0315527E+0
7.2572765E+3 1.0246026E+0
7.2577764E+3 1.0244510E+0
7.2582764E+3 1.0247295E+0
7.2587763E+3 1.0224967E+0
7.2592762E+3 1.0199150E+0
7.2597762E+3 1.0190402E+0
7.2602761E+3 1.0176642E+0
7.2607760E+3 1.0167491E+0
7.2612760E+3 1.0183444E+0
7.2617759E+3 1.0210298E+0
7.2622758E+3 1.0161105E+0
7.2627758E+3 1.0179977E+0
7.2632757E+3 1.0121499E+0
7.2637756E+3 1.0108321E+0
7.2642756E+3 1.0125657E+0
7.2647755E+3 1.0124929E+0
7.2652754E+3 1.0177319E+0
7.2657754E+3 1.0161552E+0
7.2662753E+3 1.0160452E+0
7.2667752E+3 1.0106716E+0
7.2672751E+3 1.0112477E+0
7.2677751E+3 1.0118311E+0
7.2682750E+3 1.0096283E+0
7.2687749E+3 1.0101850E+0
7.2692749E+3 1.0094402E+0
7.2697748E+3 1.0109141E+0
7.2702747E+3 1.0092464E+0
7.2707747E+3 1.0044473E+0
7.2712746E+3 1.0097805E+0
7.2717745E+3 1.0087143E+0
7.2722745E+3 1.0085819E+0
7.2727744E+3 1.0051649E+0
7.2732743E+3 1.0069820E+0
7.2737743E+3 1.0056047E+0
7.2742742E+3 1.0044275E+0
7.2792735E+3 1.0030768E+0
7.2842728E+3 9.9979147E-1
7.2892722E+3 9.9577097E-1
7.2942715E+3 9.8770478E-1
7.2992708E+3 9.8494673E-1
7.3042701E+3 9.9197438E-1
7.3092694E+3 1.0015592E+0
7.3142687E+3 1.0003331E+0
7.3192681E+3 1.0050281E+0
7.3242674E+3 1.0080626E+0
7.3292667E+3 1.0027573E+0
7.3342660E+3 1.0066012E+0
7.3392653E+3 1.0137178E+0
7.3442646E+3 1.0120861E+0
7.3492639E+3 1.0096525E+0
7.3542633E+3 1.0037124E+0
7.3592626E+3 1.0040250E+0
7.3642619E+3 9.9877303E-1
7.3692612E+3 1.0013981E+0
7.3742605E+3 9.9790000E-1
7.3792598E+3 9.9789967E-1
7.3842591E+3 9.9785820E-1
7.3892584E+3 9.9739784E-1
7.3942577E+3 9.9331511E-1
7.3992570E+3 9.9816957E-1
7.4042564E+3 9.9700928E-1
7.4092557E+3 9.9234366E-1
7.4142550E+3 9.9646047E-1
