#%Name: Fo80 forsterite, Fayalite-Forsterite Series
#%Empirical series formula: Fe2 2+ [SiO4]- Mg2[SiO4]
#%Mineral group: olivines 
#%Xtal system: Orthorhombic
#%Edge: K
#%Sample prep: powder on kapton tape
#%Beamline: ALS 10.3.2, HxV slits = 50x20 um
#%Det:  I0=N2, Fluorescence mode (Ge solid state 7elts)
#%Ref/notes:  sample provided by the National History Museum, London, UK.
#%Temp: Room temp (28C)
#%Time&date: 8:11 AM 08/17/2006 
#%Provider: Anna Buttherworth, Sirine Fakra, Matthew A. Marcus.
#%==================================================
7.0093500E+3 2.0532133E-3
7.0143505E+3 1.9588099E-3
7.0193510E+3 2.2195269E-3
7.0243515E+3 2.2640936E-3
7.0293521E+3 2.3695107E-3
7.0343526E+3 2.3249187E-3
7.0393531E+3 2.6001789E-3
7.0443536E+3 2.8210760E-3
7.0493542E+3 2.8978023E-3
7.0543547E+3 3.2080164E-3
7.0593552E+3 3.5272864E-3
7.0643557E+3 3.8545113E-3
7.0693563E+3 4.2331778E-3
7.0743568E+3 4.9589918E-3
7.0793573E+3 5.5306546E-3
7.0843578E+3 6.4440155E-3
7.0893584E+3 7.4949767E-3
7.0943589E+3 9.2084612E-3
7.0993594E+3 1.1531531E-2
7.0998595E+3 1.1768735E-2
7.1003595E+3 1.2188399E-2
7.1008596E+3 1.2388460E-2
7.1013596E+3 1.2626085E-2
7.1018597E+3 1.3173260E-2
7.1023597E+3 1.3439440E-2
7.1028598E+3 1.3816066E-2
7.1033598E+3 1.4387860E-2
7.1038599E+3 1.5172407E-2
7.1043599E+3 1.5617470E-2
7.1048600E+3 1.6398605E-2
7.1053600E+3 1.6961967E-2
7.1058601E+3 1.7166989E-2
7.1063602E+3 1.8450260E-2
7.1068602E+3 1.9275313E-2
7.1073603E+3 2.0671283E-2
7.1078603E+3 2.1728572E-2
7.1083604E+3 2.2576243E-2
7.1088604E+3 2.4223547E-2
7.1093605E+3 2.7012189E-2
7.1098605E+3 3.1253887E-2
7.1103606E+3 3.8228893E-2
7.1108606E+3 4.6819866E-2
7.1113607E+3 5.0332919E-2
7.1118607E+3 5.0052966E-2
7.1123608E+3 4.9428446E-2
7.1128608E+3 4.9631205E-2
7.1133609E+3 5.0947128E-2
7.1138609E+3 5.2039509E-2
7.1143610E+3 5.4411800E-2
7.1148610E+3 5.9613346E-2
7.1153611E+3 6.9219196E-2
7.1158612E+3 8.1953660E-2
7.1163612E+3 1.0050065E-1
7.1168613E+3 1.3196099E-1
7.1173613E+3 1.7971659E-1
7.1178614E+3 2.5192540E-1
7.1183614E+3 3.5589619E-1
7.1188615E+3 4.6885365E-1
7.1193615E+3 5.6474856E-1
7.1198616E+3 6.4536396E-1
7.1203616E+3 7.2120963E-1
7.1208617E+3 7.9773757E-1
7.1213617E+3 8.7493481E-1
7.1218618E+3 9.5307927E-1
7.1223618E+3 1.0495694E+0
7.1228619E+3 1.1516249E+0
7.1233619E+3 1.2567061E+0
7.1238620E+3 1.3790272E+0
7.1243621E+3 1.4859800E+0
7.1248621E+3 1.5716015E+0
7.1253622E+3 1.6422692E+0
7.1258622E+3 1.6792452E+0
7.1263623E+3 1.6736274E+0
7.1268623E+3 1.6395226E+0
7.1273624E+3 1.5895112E+0
7.1278624E+3 1.5401919E+0
7.1283625E+3 1.4991972E+0
7.1288625E+3 1.4667558E+0
7.1293626E+3 1.4245310E+0
7.1298626E+3 1.3683994E+0
7.1303627E+3 1.3095028E+0
7.1308627E+3 1.2432364E+0
7.1313628E+3 1.1653046E+0
7.1318628E+3 1.0963815E+0
7.1323629E+3 1.0414498E+0
7.1328630E+3 1.0036113E+0
7.1333630E+3 9.8250841E-1
7.1338631E+3 9.6233711E-1
7.1343631E+3 9.5542206E-1
7.1348632E+3 9.4275283E-1
7.1353632E+3 9.3310189E-1
7.1358633E+3 9.2232481E-1
7.1363633E+3 9.1519430E-1
7.1368634E+3 9.1572807E-1
7.1373634E+3 9.2614890E-1
7.1378635E+3 9.3869132E-1
7.1383635E+3 9.4815436E-1
7.1388636E+3 9.5821687E-1
7.1393636E+3 9.5836993E-1
7.1398637E+3 9.5741416E-1
7.1403638E+3 9.4859924E-1
7.1408638E+3 9.4169282E-1
7.1413639E+3 9.3147763E-1
7.1418639E+3 9.2360032E-1
7.1423640E+3 9.1477183E-1
7.1443820E+3 8.7512045E-1
7.1464001E+3 8.2686884E-1
7.1484182E+3 7.9031579E-1
7.1504362E+3 7.8937976E-1
7.1524543E+3 8.2406511E-1
7.1544724E+3 8.6502952E-1
7.1564905E+3 8.9879249E-1
7.1585085E+3 9.2443417E-1
7.1605266E+3 9.4812415E-1
7.1625447E+3 9.8231302E-1
7.1645628E+3 1.0109834E+0
7.1665808E+3 1.0540116E+0
7.1685989E+3 1.0898270E+0
7.1706170E+3 1.0970341E+0
7.1726350E+3 1.0852633E+0
7.1746531E+3 1.0717395E+0
7.1766712E+3 1.0543173E+0
7.1786893E+3 1.0492886E+0
7.1807073E+3 1.0403108E+0
7.1827254E+3 1.0262393E+0
7.1847435E+3 1.0069664E+0
7.1867615E+3 9.9519008E-1
7.1887796E+3 9.8420060E-1
7.1907977E+3 9.7784942E-1
7.1928158E+3 9.7492151E-1
7.1948338E+3 9.6671086E-1
7.1968519E+3 9.5803047E-1
7.1988700E+3 9.5035893E-1
7.2008881E+3 9.5249360E-1
7.2029061E+3 9.4690698E-1
7.2049242E+3 9.4932949E-1
7.2069423E+3 9.5151147E-1
7.2089603E+3 9.5671959E-1
7.2109784E+3 9.6809038E-1
7.2129965E+3 9.7847301E-1
7.2150146E+3 9.8565616E-1
7.2170326E+3 9.9278943E-1
7.2190507E+3 9.9457539E-1
7.2210688E+3 9.9636496E-1
7.2230869E+3 9.9434567E-1
7.2251049E+3 9.9195540E-1
7.2271230E+3 9.8812324E-1
7.2291411E+3 9.8792136E-1
7.2311592E+3 9.8585644E-1
7.2331772E+3 9.8146975E-1
7.2351953E+3 9.8315825E-1
7.2372134E+3 9.8938660E-1
7.2392315E+3 9.9009144E-1
7.2412495E+3 9.9867797E-1
7.2432676E+3 1.0035422E+0
7.2452857E+3 1.0119329E+0
7.2473038E+3 1.0153944E+0
7.2493218E+3 1.0175256E+0
7.2513399E+3 1.0190574E+0
7.2533580E+3 1.0180379E+0
7.2553761E+3 1.0184017E+0
7.2558761E+3 1.0168078E+0
7.2563762E+3 1.0190318E+0
7.2568762E+3 1.0176834E+0
7.2573763E+3 1.0178061E+0
7.2578763E+3 1.0166547E+0
7.2583764E+3 1.0165557E+0
7.2588764E+3 1.0169364E+0
7.2593765E+3 1.0189284E+0
7.2598765E+3 1.0183516E+0
7.2603766E+3 1.0151319E+0
7.2608766E+3 1.0158130E+0
7.2613767E+3 1.0162932E+0
7.2618768E+3 1.0147198E+0
7.2623768E+3 1.0141341E+0
7.2628769E+3 1.0130335E+0
7.2633769E+3 1.0131822E+0
7.2638770E+3 1.0124871E+0
7.2643770E+3 1.0127329E+0
7.2648771E+3 1.0129486E+0
7.2653771E+3 1.0101625E+0
7.2658772E+3 1.0124830E+0
7.2663772E+3 1.0143243E+0
7.2668773E+3 1.0136221E+0
7.2673773E+3 1.0152924E+0
7.2678774E+3 1.0103545E+0
7.2683775E+3 1.0113512E+0
7.2688775E+3 1.0133620E+0
7.2693776E+3 1.0071937E+0
7.2698776E+3 1.0100079E+0
7.2703777E+3 1.0143379E+0
7.2727990E+3 1.0037892E+0
7.2752203E+3 1.0053715E+0
7.2776416E+3 1.0038235E+0
7.2800629E+3 9.9982910E-1
7.2824842E+3 9.9745552E-1
7.2849056E+3 9.9308678E-1
7.2873269E+3 9.9000126E-1
7.2897482E+3 9.8892693E-1
7.2921695E+3 9.8611429E-1
7.2945908E+3 9.8262453E-1
7.2970121E+3 9.8347228E-1
7.2994334E+3 9.8304417E-1
7.3018548E+3 9.8376694E-1
7.3042761E+3 9.8711595E-1
7.3066974E+3 9.8772271E-1
7.3091187E+3 9.8587849E-1
7.3115400E+3 9.8908266E-1
7.3139613E+3 9.8838028E-1
7.3163827E+3 9.9266752E-1
7.3188040E+3 9.9382509E-1
7.3212253E+3 9.9571100E-1
7.3236466E+3 9.9739322E-1
7.3260679E+3 1.0025395E+0
7.3284892E+3 1.0046543E+0
7.3309106E+3 1.0058793E+0
7.3333319E+3 1.0074748E+0
7.3357532E+3 1.0070233E+0
7.3381745E+3 1.0046359E+0
7.3405958E+3 1.0054779E+0
7.3430171E+3 1.0064358E+0
7.3454385E+3 1.0043759E+0
7.3478598E+3 1.0057926E+0
7.3502811E+3 1.0056448E+0
7.3527024E+3 1.0034923E+0
7.3551237E+3 9.9910286E-1
7.3575450E+3 1.0001286E+0
7.3599664E+3 1.0008846E+0
7.3623877E+3 9.9932105E-1
7.3652085E+3 9.9967929E-1
7.3680293E+3 9.9784705E-1
7.3708501E+3 9.9701294E-1
7.3736710E+3 9.9778537E-1
7.3764918E+3 9.9731038E-1
7.3793126E+3 9.9983365E-1
7.3821334E+3 9.9796750E-1
7.3849543E+3 9.9678983E-1
7.3877751E+3 9.9729891E-1
7.3905959E+3 9.9651412E-1
7.3934167E+3 9.9663929E-1
7.3962375E+3 9.9744265E-1
7.3990584E+3 9.9770835E-1
7.4018792E+3 9.9648776E-1
7.4047000E+3 9.9631712E-1
7.4075208E+3 1.0003342E+0
7.4103417E+3 9.9558579E-1
7.4131625E+3 9.9811514E-1
7.4159833E+3 9.9789560E-1
7.4188041E+3 9.9655196E-1
7.4216250E+3 9.9760536E-1
7.4244458E+3 9.9761055E-1
7.4272666E+3 9.9634669E-1
7.4300874E+3 9.9749375E-1
7.4329082E+3 9.9794751E-1
7.4357291E+3 9.9854180E-1
7.4385499E+3 9.9625962E-1
7.4413707E+3 9.9985394E-1
7.4441915E+3 9.9831568E-1
7.4470124E+3 9.9892248E-1
7.4498332E+3 1.0004094E+0
7.4526540E+3 1.0024644E+0
7.4554748E+3 1.0004463E+0
7.4582957E+3 1.0020469E+0
7.4611165E+3 1.0031948E+0
7.4639373E+3 1.0000809E+0
7.4667581E+3 9.9920956E-1
7.4695790E+3 1.0012957E+0
7.4723998E+3 1.0003484E+0
7.4757335E+3 9.9847337E-1
7.4790672E+3 1.0012437E+0
7.4824009E+3 1.0012281E+0
7.4857346E+3 9.9898811E-1
7.4890683E+3 9.9798963E-1
7.4924020E+3 9.9843014E-1
7.4957357E+3 9.9839774E-1
7.4990694E+3 9.9748489E-1
7.5024031E+3 9.9883079E-1
7.5057368E+3 9.9816383E-1
7.5090705E+3 9.9770245E-1
7.5124043E+3 9.9495978E-1
7.5157380E+3 9.9738739E-1
7.5190717E+3 9.9799358E-1
7.5224054E+3 9.9883525E-1
7.5257391E+3 9.9499579E-1
7.5290728E+3 9.9754880E-1
7.5324065E+3 9.9978719E-1
7.5357402E+3 1.0000227E+0
7.5390739E+3 9.9904008E-1
7.5424076E+3 9.9882989E-1
7.5457413E+3 1.0019693E+0
7.5490750E+3 1.0004041E+0
7.5524087E+3 1.0003984E+0
7.5557424E+3 9.9860561E-1
7.5590761E+3 9.9931697E-1
7.5624099E+3 9.9864882E-1
7.5657436E+3 9.9979943E-1
7.5690773E+3 1.0004202E+0
7.5724110E+3 9.9918516E-1
7.5757447E+3 9.9884257E-1
7.5790784E+3 1.0001000E+0
7.5824121E+3 1.0008174E+0
7.5861625E+3 9.9971633E-1
7.5899130E+3 1.0024326E+0
7.5936634E+3 1.0003511E+0
7.5974138E+3 1.0027504E+0
7.6011642E+3 9.9976438E-1
7.6049146E+3 1.0022743E+0
7.6086651E+3 1.0016560E+0
7.6124155E+3 1.0006540E+0
7.6161659E+3 1.0014372E+0
7.6199163E+3 1.0030681E+0
7.6236668E+3 1.0016715E+0
7.6274172E+3 1.0001611E+0
7.6311676E+3 1.0011094E+0
7.6349180E+3 9.9983386E-1
7.6386685E+3 1.0008954E+0
7.6424189E+3 1.0004865E+0
7.6465219E+3 9.9980629E-1
7.6506250E+3 1.0006646E+0
7.6547280E+3 1.0023925E+0
7.6588310E+3 1.0000962E+0
7.6629340E+3 1.0006338E+0
7.6670371E+3 1.0012819E+0
7.6711401E+3 1.0029670E+0
7.6752431E+3 1.0016294E+0
7.6793462E+3 1.0019171E+0
7.6834492E+3 1.0022422E+0
7.6875522E+3 1.0033657E+0
7.6916553E+3 1.0021352E+0
7.6957583E+3 1.0020367E+0
7.6998613E+3 1.0019365E+0
7.7039644E+3 1.0018346E+0
7.7080674E+3 1.0017310E+0
7.7121704E+3 1.0016257E+0
7.7162735E+3 1.0015187E+0
7.7203765E+3 1.0014100E+0
7.7244795E+3 1.0012995E+0
7.7285826E+3 1.0011874E+0
7.7326856E+3 9.9979933E-1
7.7367886E+3 1.0017400E+0
7.7408917E+3 9.9949311E-1
7.7449947E+3 1.0008333E+0
7.7490978E+3 1.0014168E+0
7.7532008E+3 1.0000099E+0
7.7573038E+3 1.0001815E+0
7.7614069E+3 9.9948218E-1
7.7655099E+3 1.0017545E+0
7.7696129E+3 9.9809319E-1
7.7737160E+3 9.9857302E-1
7.7778190E+3 9.9973326E-1
7.7819221E+3 1.0014821E+0
7.7860251E+3 9.9850678E-1
7.7901281E+3 1.0017456E+0
7.7942312E+3 9.9875046E-1
7.7983342E+3 1.0002834E+0
7.8024373E+3 1.0006338E+0
7.8072204E+3 9.9933911E-1
7.8120036E+3 9.9901082E-1
7.8167867E+3 1.0011499E+0
7.8215699E+3 1.0011520E+0
7.8263531E+3 9.9932195E-1
7.8311362E+3 1.0003911E+0
7.8359194E+3 1.0000337E+0
7.8407026E+3 9.9978691E-1
7.8454857E+3 9.9850604E-1
7.8502689E+3 9.9916717E-1
7.8550521E+3 1.0006347E+0
7.8598352E+3 1.0003717E+0
7.8646184E+3 9.9889850E-1
7.8694016E+3 1.0002963E+0
7.8741847E+3 9.9870069E-1
7.8789679E+3 9.9944925E-1
7.8837511E+3 9.9892113E-1
7.8885342E+3 9.9832442E-1
7.8933174E+3 9.9861199E-1
7.8981006E+3 1.0003694E+0
7.9028838E+3 9.9735380E-1
7.9076669E+3 9.9538543E-1
