#%Name: Goethite
#%Empirical formula: alpha-Fe3+O(OH) 
#%Mineral group: oxyhydroxides
#%Xtal system: Orthorhombic  
#%Edge: K
#%Sample prep: powder on kapton tape
#%Beamline: ALS 10.3.2, HxV slits = 50x20 um
#%Det:  I0=N2, Fluorescence mode (Ge solid state 7elts)
#%Ref/notes:  XRD confirmed
#%Temp: Room temp (28C)
#%Time&date: 11:39 PM 03/17/2007 
#%Provider: Sirine Fakra, Matthew A. Marcus.
#%==================================================
6.9109281E+3 1.4633524E-3
6.9159264E+3 3.7633560E-3
6.9209248E+3 2.4547930E-3
6.9259232E+3 1.8977342E-3
6.9309216E+3 1.9337742E-3
6.9359199E+3 3.3080025E-3
6.9409183E+3 4.1845817E-3
6.9459167E+3 4.7133444E-3
6.9509151E+3 3.6514532E-3
6.9559134E+3 3.9917341E-3
6.9609118E+3 2.0371211E-3
6.9659102E+3 1.1904713E-3
6.9709085E+3 1.3373906E-3
6.9759069E+3 -2.8015435E-3
6.9809053E+3 -4.8946662E-3
6.9859036E+3 -4.7221973E-3
6.9909020E+3 -5.5900187E-3
6.9959003E+3 -5.5439145E-3
7.0008987E+3 -5.3018989E-3
7.0058971E+3 -5.6783089E-3
7.0108954E+3 -4.5175533E-3
7.0158938E+3 -6.4726535E-3
7.0208921E+3 -5.7154105E-3
7.0258905E+3 -3.0463864E-3
7.0308888E+3 -3.4170768E-3
7.0358872E+3 -2.9576121E-3
7.0408855E+3 -4.3686983E-3
7.0458839E+3 -3.0531634E-3
7.0508822E+3 -3.6420333E-3
7.0558806E+3 -1.6490670E-3
7.0608789E+3 -1.2763702E-4
7.0658773E+3 3.9594851E-3
7.0708756E+3 1.7568481E-3
7.0758740E+3 3.7056597E-3
7.0808723E+3 5.8244371E-3
7.0813721E+3 6.8794943E-3
7.0818720E+3 6.8724262E-3
7.0823718E+3 8.5274415E-3
7.0828716E+3 5.5863406E-3
7.0833715E+3 5.2132590E-3
7.0838713E+3 6.3051039E-3
7.0843711E+3 3.7979836E-3
7.0848710E+3 4.1682816E-3
7.0853708E+3 4.1756190E-3
7.0858706E+3 2.7848474E-3
7.0863705E+3 4.3048192E-3
7.0868703E+3 2.5748946E-3
7.0873701E+3 3.8076610E-3
7.0878700E+3 1.2608647E-3
7.0883698E+3 1.1170028E-3
7.0888696E+3 2.0007142E-3
7.0893695E+3 2.8070170E-3
7.0898693E+3 1.0598138E-3
7.0903691E+3 1.9788235E-4
7.0908690E+3 6.5970844E-4
7.0913688E+3 2.4395111E-4
7.0918687E+3 4.1400025E-4
7.0923685E+3 -5.6957328E-4
7.0928683E+3 -2.4429226E-3
7.0933682E+3 -3.1567266E-4
7.0938680E+3 -4.1863691E-4
7.0943678E+3 -7.8896870E-4
7.0948677E+3 -7.0699223E-5
7.0953675E+3 8.1309168E-5
7.0958673E+3 -1.1934758E-3
7.0963672E+3 -1.7161496E-3
7.0968670E+3 -1.9017071E-3
7.0973668E+3 -8.5970184E-4
7.0978667E+3 -1.0975319E-3
7.0983665E+3 -1.4189194E-3
7.0988663E+3 -6.5492783E-4
7.0993662E+3 -4.1540794E-4
7.0998660E+3 8.2222878E-4
7.1003658E+3 -7.5324386E-4
7.1008657E+3 4.0766130E-4
7.1013655E+3 6.1004313E-4
7.1018653E+3 1.7593818E-3
7.1023652E+3 1.4314310E-3
7.1028650E+3 4.1231197E-4
7.1033648E+3 1.5615325E-3
7.1038647E+3 1.2002910E-3
7.1043645E+3 2.7766825E-3
7.1048643E+3 2.8741392E-3
7.1053642E+3 3.9071456E-3
7.1058640E+3 2.9298709E-3
7.1063638E+3 4.2417380E-3
7.1068637E+3 5.3923940E-3
7.1073635E+3 5.0903007E-3
7.1078633E+3 4.1711582E-3
7.1083632E+3 5.1031073E-3
7.1088630E+3 5.8896861E-3
7.1093628E+3 9.4864543E-3
7.1098627E+3 1.1170122E-2
7.1103625E+3 1.1714170E-2
7.1108623E+3 1.6487937E-2
7.1113622E+3 2.6699758E-2
7.1118620E+3 3.7467416E-2
7.1123618E+3 4.4047496E-2
7.1128617E+3 4.6073131E-2
7.1133615E+3 5.4719673E-2
7.1138613E+3 5.2421347E-2
7.1143612E+3 4.6680775E-2
7.1148610E+3 4.7511143E-2
7.1153608E+3 4.8003285E-2
7.1158607E+3 5.1509443E-2
7.1163605E+3 5.6132909E-2
7.1168603E+3 6.0329834E-2
7.1173602E+3 6.2998568E-2
7.1178600E+3 6.8526333E-2
7.1183598E+3 7.5238847E-2
7.1188597E+3 8.5220992E-2
7.1193595E+3 1.0177947E-1
7.1198593E+3 1.2766382E-1
7.1203592E+3 1.5931223E-1
7.1208590E+3 2.0618474E-1
7.1213588E+3 2.6013279E-1
7.1218587E+3 3.3033591E-1
7.1223585E+3 3.9935052E-1
7.1228583E+3 4.6066426E-1
7.1233582E+3 5.2808902E-1
7.1238580E+3 5.9967934E-1
7.1243578E+3 6.7807761E-1
7.1248577E+3 7.7902265E-1
7.1253575E+3 8.8107751E-1
7.1258573E+3 9.8845266E-1
7.1263572E+3 1.0839369E+0
7.1268570E+3 1.1606186E+0
7.1273568E+3 1.2254601E+0
7.1278567E+3 1.2765960E+0
7.1283565E+3 1.3188537E+0
7.1288563E+3 1.3433318E+0
7.1293562E+3 1.3558458E+0
7.1298560E+3 1.3576849E+0
7.1303558E+3 1.3561882E+0
7.1308557E+3 1.3580934E+0
7.1313555E+3 1.3591752E+0
7.1318553E+3 1.3631767E+0
7.1323551E+3 1.3686510E+0
7.1328550E+3 1.3746811E+0
7.1333548E+3 1.3717485E+0
7.1338546E+3 1.3623939E+0
7.1343545E+3 1.3487712E+0
7.1348543E+3 1.3347506E+0
7.1353541E+3 1.3182600E+0
7.1358540E+3 1.3011670E+0
7.1363538E+3 1.2856182E+0
7.1368536E+3 1.2627281E+0
7.1373535E+3 1.2447608E+0
7.1378533E+3 1.2214510E+0
7.1383531E+3 1.1967598E+0
7.1388530E+3 1.1755014E+0
7.1393528E+3 1.1539480E+0
7.1398526E+3 1.1387939E+0
7.1403525E+3 1.1273750E+0
7.1408523E+3 1.1155887E+0
7.1413521E+3 1.1057418E+0
7.1418520E+3 1.0931444E+0
7.1423518E+3 1.0851517E+0
7.1428516E+3 1.0792136E+0
7.1433515E+3 1.0706371E+0
7.1438513E+3 1.0642094E+0
7.1443511E+3 1.0599256E+0
7.1448510E+3 1.0550759E+0
7.1453508E+3 1.0485195E+0
7.1458506E+3 1.0413031E+0
7.1463505E+3 1.0336523E+0
7.1468503E+3 1.0256901E+0
7.1473501E+3 1.0179004E+0
7.1478500E+3 1.0064366E+0
7.1483498E+3 9.9447805E-1
7.1488496E+3 9.7664612E-1
7.1493495E+3 9.6140486E-1
7.1498493E+3 9.4826028E-1
7.1503491E+3 9.3148589E-1
7.1508490E+3 9.1982561E-1
7.1513488E+3 9.0632990E-1
7.1518486E+3 8.9687109E-1
7.1523485E+3 8.8983997E-1
7.1528483E+3 8.8389054E-1
7.1533481E+3 8.7556557E-1
7.1538480E+3 8.7172377E-1
7.1543478E+3 8.6643985E-1
7.1548476E+3 8.6396358E-1
7.1553474E+3 8.6116175E-1
7.1558473E+3 8.5600440E-1
7.1563471E+3 8.5234831E-1
7.1568469E+3 8.5058847E-1
7.1573468E+3 8.4773575E-1
7.1578466E+3 8.4564709E-1
7.1583464E+3 8.4471010E-1
7.1588463E+3 8.4237983E-1
7.1593461E+3 8.4512484E-1
7.1598459E+3 8.4603815E-1
7.1603458E+3 8.4972066E-1
7.1608456E+3 8.5159783E-1
7.1628449E+3 8.6549231E-1
7.1648443E+3 8.9555769E-1
7.1668436E+3 9.3620762E-1
7.1688429E+3 9.7310720E-1
7.1708422E+3 1.0026993E+0
7.1728416E+3 1.0320633E+0
7.1748409E+3 1.0581751E+0
7.1768402E+3 1.0679439E+0
7.1788396E+3 1.0644441E+0
7.1808389E+3 1.0588007E+0
7.1828382E+3 1.0524967E+0
7.1848375E+3 1.0506865E+0
7.1868369E+3 1.0518768E+0
7.1888362E+3 1.0503997E+0
7.1908355E+3 1.0525154E+0
7.1928348E+3 1.0522436E+0
7.1948342E+3 1.0536197E+0
7.1968335E+3 1.0531260E+0
7.1988328E+3 1.0495351E+0
7.2008321E+3 1.0439562E+0
7.2028315E+3 1.0358846E+0
7.2048308E+3 1.0249132E+0
7.2068301E+3 1.0115716E+0
7.2088294E+3 9.9926739E-1
7.2108288E+3 9.9215559E-1
7.2128281E+3 9.8318910E-1
7.2148274E+3 9.7895963E-1
7.2168267E+3 9.7676610E-1
7.2188261E+3 9.7290786E-1
7.2208254E+3 9.7231951E-1
7.2228247E+3 9.7363057E-1
7.2248240E+3 9.7595014E-1
7.2268233E+3 9.7922492E-1
7.2288227E+3 9.8179779E-1
7.2308220E+3 9.8397363E-1
7.2328213E+3 9.8829712E-1
7.2348206E+3 9.9403790E-1
7.2368200E+3 9.9982932E-1
7.2388193E+3 1.0082814E+0
7.2408186E+3 1.0145809E+0
7.2428179E+3 1.0187662E+0
7.2448172E+3 1.0181955E+0
7.2468166E+3 1.0164507E+0
7.2488159E+3 1.0151262E+0
7.2508152E+3 1.0165414E+0
7.2528145E+3 1.0155384E+0
7.2548138E+3 1.0156500E+0
7.2568132E+3 1.0175514E+0
7.2588125E+3 1.0176672E+0
7.2608118E+3 1.0159393E+0
7.2628111E+3 1.0190589E+0
7.2648104E+3 1.0233851E+0
7.2668098E+3 1.0255979E+0
7.2688091E+3 1.0295899E+0
7.2708084E+3 1.0310129E+0
7.2728077E+3 1.0329182E+0
7.2748070E+3 1.0343749E+0
7.2768064E+3 1.0345669E+0
7.2788057E+3 1.0345749E+0
7.2808050E+3 1.0351311E+0
7.2828043E+3 1.0341050E+0
7.2848036E+3 1.0299127E+0
7.2868029E+3 1.0271100E+0
7.2888023E+3 1.0222619E+0
7.2908016E+3 1.0167047E+0
7.2928009E+3 1.0124276E+0
7.2948002E+3 1.0066944E+0
7.2967995E+3 1.0039326E+0
7.2987988E+3 1.0036683E+0
7.3007982E+3 1.0014039E+0
7.3027975E+3 9.9855505E-1
7.3047968E+3 9.9789362E-1
7.3067961E+3 9.9645366E-1
7.3087954E+3 9.9501401E-1
7.3107947E+3 9.9716080E-1
7.3127940E+3 9.9474465E-1
7.3147934E+3 9.9241177E-1
7.3167927E+3 9.9039295E-1
7.3187920E+3 9.8905582E-1
7.3207913E+3 9.8819197E-1
7.3227906E+3 9.8811762E-1
7.3247899E+3 9.9082868E-1
7.3267892E+3 9.9280157E-1
7.3287886E+3 9.9631036E-1
7.3307879E+3 9.9813913E-1
7.3327872E+3 1.0009302E+0
7.3347865E+3 1.0032942E+0
7.3367858E+3 1.0058331E+0
7.3387851E+3 1.0081297E+0
7.3407844E+3 1.0105434E+0
7.3427837E+3 1.0102466E+0
7.3447831E+3 1.0115231E+0
7.3467824E+3 1.0105056E+0
7.3487817E+3 1.0113209E+0
7.3507810E+3 1.0092852E+0
7.3527803E+3 1.0085690E+0
7.3547796E+3 1.0137485E+0
7.3567789E+3 1.0118459E+0
7.3587782E+3 1.0064106E+0
7.3607775E+3 1.0009899E+0
7.3627769E+3 9.9833165E-1
7.3647762E+3 9.9451232E-1
7.3667755E+3 9.9303335E-1
7.3687748E+3 9.9170539E-1
7.3707741E+3 9.9142573E-1
7.3727734E+3 9.9196467E-1
7.3747727E+3 9.9203168E-1
7.3767720E+3 9.9395457E-1
7.3787713E+3 9.9599085E-1
7.3807706E+3 9.9695177E-1
7.3827699E+3 9.9887319E-1
7.3847692E+3 9.9809070E-1
7.3867686E+3 9.9866539E-1
7.3887679E+3 9.9823908E-1
7.3907672E+3 9.9825131E-1
7.3927665E+3 9.9768107E-1
7.3947658E+3 9.9761314E-1
7.3967651E+3 9.9671314E-1
7.3987644E+3 9.9704774E-1
7.4007637E+3 9.9709565E-1
7.4027630E+3 9.9654567E-1
7.4047623E+3 9.9677100E-1
7.4067616E+3 9.9911034E-1
7.4087609E+3 9.9905301E-1
7.4107602E+3 1.0010690E+0
7.4127595E+3 1.0009724E+0
7.4147588E+3 1.0018819E+0
7.4167581E+3 1.0029664E+0
7.4187575E+3 1.0041109E+0
7.4207568E+3 1.0055986E+0
7.4227561E+3 1.0028857E+0
7.4247554E+3 1.0035333E+0
7.4267547E+3 9.9991544E-1
7.4287540E+3 9.9752534E-1
7.4307533E+3 9.9450594E-1
7.4327526E+3 9.9318464E-1
7.4347519E+3 9.9134744E-1
7.4367512E+3 9.8872707E-1
7.4387505E+3 9.8762454E-1
7.4407498E+3 9.8724890E-1
7.4427491E+3 9.8842051E-1
7.4447484E+3 9.8756182E-1
7.4467477E+3 9.8666919E-1
7.4487470E+3 9.8586518E-1
7.4507463E+3 9.8837962E-1
7.4527456E+3 9.8973489E-1
7.4547449E+3 9.9092954E-1
7.4567442E+3 9.9341271E-1
7.4587435E+3 9.9364087E-1
7.4607428E+3 9.9546216E-1
7.4627421E+3 9.9562687E-1
7.4647414E+3 9.9622904E-1
7.4667407E+3 9.9605102E-1
7.4687400E+3 9.9674963E-1
7.4707393E+3 9.9632198E-1
7.4727386E+3 9.9526574E-1
7.4747379E+3 9.9557734E-1
7.4767372E+3 9.9563390E-1
7.4787365E+3 9.9471042E-1
7.4807358E+3 9.9531122E-1
7.4827351E+3 9.9633704E-1
7.4847344E+3 9.9806309E-1
7.4867337E+3 9.9644884E-1
7.4887330E+3 9.9754562E-1
7.4907323E+3 9.9762857E-1
7.4927316E+3 9.9778654E-1
7.4947309E+3 9.9814164E-1
7.4967302E+3 9.9875318E-1
7.4987295E+3 9.9881841E-1
7.5007288E+3 9.9837955E-1
7.5027281E+3 9.9806818E-1
7.5047274E+3 9.9817850E-1
7.5067267E+3 9.9641353E-1
7.5087260E+3 9.9569729E-1
7.5107253E+3 9.9651465E-1
7.5127246E+3 9.9598649E-1
7.5147239E+3 9.9565228E-1
7.5167232E+3 9.9451340E-1
7.5187225E+3 9.9632491E-1
7.5207217E+3 9.9437234E-1
7.5227210E+3 9.9375360E-1
7.5247203E+3 9.8722490E-1
7.5267196E+3 9.9454685E-1
7.5287189E+3 9.9178051E-1
7.5307182E+3 9.8826988E-1
7.5327175E+3 9.9366647E-1
7.5347168E+3 9.9202552E-1
7.5367161E+3 9.9431577E-1
7.5387154E+3 9.9402379E-1
7.5407147E+3 9.9529147E-1
7.5427140E+3 9.9486048E-1
7.5447133E+3 9.9511955E-1
7.5467126E+3 9.9644893E-1
7.5487119E+3 9.9829157E-1
7.5507112E+3 9.9931154E-1
7.5527104E+3 1.0002336E+0
7.5547097E+3 9.9992940E-1
7.5567090E+3 1.0000310E+0
7.5587083E+3 1.0002584E+0
7.5607076E+3 1.0003625E+0
7.5627069E+3 1.0004990E+0
7.5647062E+3 9.9965622E-1
7.5667055E+3 9.9895883E-1
7.5687048E+3 9.9937984E-1
7.5707041E+3 9.9971908E-1
7.5727034E+3 9.9984211E-1
7.5747026E+3 1.0001108E+0
7.5767019E+3 1.0010275E+0
7.5787012E+3 1.0020131E+0
7.5807005E+3 1.0024863E+0
7.5826998E+3 1.0021772E+0
7.5846991E+3 1.0038001E+0
7.5866984E+3 1.0044859E+0
7.5886977E+3 1.0028426E+0
7.5906970E+3 1.0038699E+0
7.5926962E+3 1.0021211E+0
7.5946955E+3 1.0029088E+0
7.5966948E+3 9.9994869E-1
7.5986941E+3 1.0013472E+0
7.6006934E+3 1.0003777E+0
7.6026927E+3 1.0017275E+0
7.6046920E+3 1.0001057E+0
7.6066913E+3 9.9830542E-1
7.6086905E+3 9.9959076E-1
7.6106898E+3 9.9908993E-1
