#%Name: goethite
#%Empirical formula:
#%Mineral group: 
#%Xtal system: 
#%Edge: K
#%Ref/notes:Fe reference from Jacob Frommer and Andreas Vogelin (ETH-Zurich).  
#%Ref/notes:The .xmu files are as-recieved from ETH.  All other files have had an energy shift of 1.15eV applied to bring
#%Ref/notes:them into line with our standard of Fe metal = 7110.75eV.
#%Ref/notes:The .b files are done with Manceau E0 (halfway up the edge) and k^3 weighting.
#%Ref/notes:Pre-edge subtraction: In k-space&Background remove, do Transmission Fit, then polish with Transmission+Edge fit to yield .t files.
#%Ref/notes:Post-edge normalization (.e):  Since these are long transmission scans, we get a curvy background. This background is straigher when we make the transformation x = E^(-2.7), which is a rough approximation for how absorption goes with energy.  Thus, we read the .t file into 2-Column Editor, make this transformation (which can be done in 3 mouse clicks), and run a linear background through the tail of the data.  Divide by this and go back to E (another 3 clicks) and run a 2nd-order polynomial through the data, choosing the start point so that the background goes nicely through the tail.  This removes a small amount of curvature from the far post-edge region.  Divide by the resulting background and the result is the .e file.
#%============================================================
6.9605700E+3 8.5435952E-4
6.9656000E+3 7.4425504E-4
6.9706200E+3 8.5945027E-4
6.9756000E+3 1.0612288E-3
6.9806300E+3 9.4031108E-4
6.9856500E+3 1.0933445E-3
6.9905900E+3 1.0488569E-3
6.9956000E+3 1.1335134E-3
7.0006200E+3 1.1658776E-3
7.0056100E+3 1.2760637E-3
7.0106200E+3 1.0643179E-3
7.0156000E+3 1.3158545E-3
7.0206300E+3 1.3928383E-3
7.0256100E+3 1.5359071E-3
7.0306300E+3 1.6537045E-3
7.0356000E+3 1.7748101E-3
7.0405900E+3 1.7882710E-3
7.0456000E+3 1.8807581E-3
7.0506100E+3 2.2571791E-3
7.0556100E+3 2.3573504E-3
7.0606100E+3 2.5107612E-3
7.0626200E+3 2.5275848E-3
7.0646500E+3 2.8040196E-3
7.0666400E+3 2.7832922E-3
7.0686500E+3 2.9732533E-3
7.0706400E+3 3.0522560E-3
7.0726300E+3 3.2922428E-3
7.0746500E+3 3.3721374E-3
7.0766500E+3 3.5836115E-3
7.0786200E+3 3.6492254E-3
7.0806200E+3 3.8420901E-3
7.0826400E+3 4.0458402E-3
7.0846200E+3 4.2052057E-3
7.0866400E+3 4.5208765E-3
7.0886200E+3 4.8969294E-3
7.0906400E+3 5.0766502E-3
7.0910500E+3 5.1561626E-3
7.0915600E+3 5.1267970E-3
7.0920500E+3 5.2660869E-3
7.0925600E+3 5.3734851E-3
7.0930500E+3 5.4171578E-3
7.0935700E+3 5.5303062E-3
7.0940600E+3 5.7191074E-3
7.0945700E+3 5.8914967E-3
7.0950600E+3 6.0408045E-3
7.0955500E+3 6.1194782E-3
7.0960600E+3 6.3921972E-3
7.0965600E+3 6.4875603E-3
7.0970700E+3 6.6746890E-3
7.0975600E+3 6.7593046E-3
7.0980500E+3 6.7795216E-3
7.0985600E+3 7.0856098E-3
7.0990600E+3 7.2488670E-3
7.0995700E+3 7.5227767E-3
7.1000600E+3 7.8502320E-3
7.1005300E+3 8.3290513E-3
7.1010600E+3 9.4876880E-3
7.1015400E+3 1.1148761E-2
7.1020700E+3 1.2964167E-2
7.1025600E+3 1.3044711E-2
7.1030300E+3 1.1942052E-2
7.1035500E+3 1.0302041E-2
7.1040600E+3 8.6260677E-3
7.1045500E+3 7.9378978E-3
7.1050700E+3 8.2888559E-3
7.1055600E+3 9.0077308E-3
7.1060500E+3 1.0198135E-2
7.1065700E+3 1.1529361E-2
7.1070600E+3 1.2290600E-2
7.1075300E+3 1.2971451E-2
7.1080600E+3 1.4021768E-2
7.1085600E+3 1.4873357E-2
7.1090500E+3 1.5791406E-2
7.1095700E+3 1.7400510E-2
7.1100600E+3 1.9073556E-2
7.1105500E+3 2.2007720E-2
7.1110700E+3 2.7184214E-2
7.1115600E+3 3.4745265E-2
7.1120500E+3 4.3074311E-2
7.1125700E+3 5.2584572E-2
7.1130600E+3 5.9954068E-2
7.1135600E+3 6.3837509E-2
7.1140500E+3 6.4798433E-2
7.1145600E+3 6.2728113E-2
7.1150600E+3 6.0448481E-2
7.1155500E+3 6.0732219E-2
7.1160700E+3 6.2980615E-2
7.1165400E+3 6.6243460E-2
7.1170600E+3 6.9949170E-2
7.1175500E+3 7.3758645E-2
7.1180700E+3 7.9220041E-2
7.1185600E+3 8.7156736E-2
7.1190500E+3 9.9486000E-2
7.1195700E+3 1.1730886E-1
7.1200600E+3 1.4085408E-1
7.1205600E+3 1.7284292E-1
7.1210300E+3 2.1682238E-1
7.1215700E+3 2.7001263E-1
7.1220700E+3 3.2532470E-1
7.1225600E+3 3.8740401E-1
7.1230300E+3 4.5347461E-1
7.1235500E+3 5.2026152E-1
7.1240700E+3 5.8493094E-1
7.1245600E+3 6.5035390E-1
7.1250600E+3 7.2415669E-1
7.1255500E+3 8.0622343E-1
7.1260700E+3 8.8726449E-1
7.1265700E+3 9.6615566E-1
7.1270600E+3 1.0488087E+0
7.1275600E+3 1.1346776E+0
7.1280500E+3 1.2109289E+0
7.1285700E+3 1.2752348E+0
7.1290700E+3 1.3204301E+0
7.1295600E+3 1.3468775E+0
7.1300600E+3 1.3547683E+0
7.1305500E+3 1.3509959E+0
7.1310900E+3 1.3411683E+0
7.1316100E+3 1.3295819E+0
7.1321900E+3 1.3191523E+0
7.1327100E+3 1.3104034E+0
7.1332700E+3 1.3011093E+0
7.1338300E+3 1.2886955E+0
7.1344000E+3 1.2744059E+0
7.1349800E+3 1.2616819E+0
7.1355400E+3 1.2506396E+0
7.1361500E+3 1.2391177E+0
7.1367500E+3 1.2278687E+0
7.1373300E+3 1.2135808E+0
7.1379400E+3 1.1952078E+0
7.1385700E+3 1.1728925E+0
7.1391900E+3 1.1523027E+0
7.1398200E+3 1.1327638E+0
7.1404500E+3 1.1154640E+0
7.1411000E+3 1.1006274E+0
7.1417500E+3 1.0886027E+0
7.1423900E+3 1.0779309E+0
7.1430900E+3 1.0679977E+0
7.1437400E+3 1.0605948E+0
7.1444100E+3 1.0544369E+0
7.1451000E+3 1.0482445E+0
7.1457900E+3 1.0428006E+0
7.1464900E+3 1.0357250E+0
7.1472300E+3 1.0257797E+0
7.1479200E+3 1.0127278E+0
7.1486300E+3 9.9494839E-1
7.1493700E+3 9.7312343E-1
7.1501100E+3 9.5163911E-1
7.1508300E+3 9.3062941E-1
7.1515600E+3 9.1105830E-1
7.1523400E+3 8.9585980E-1
7.1531000E+3 8.8261450E-1
7.1538600E+3 8.7087620E-1
7.1546500E+3 8.6098827E-1
7.1554100E+3 8.5144370E-1
7.1562300E+3 8.4262864E-1
7.1569900E+3 8.3505327E-1
7.1578000E+3 8.2812417E-1
7.1586200E+3 8.2436137E-1
7.1594300E+3 8.2299455E-1
7.1602600E+3 8.2403588E-1
7.1610800E+3 8.2727847E-1
7.1619100E+3 8.3291634E-1
7.1627600E+3 8.4062008E-1
7.1636100E+3 8.5001140E-1
7.1644800E+3 8.6131821E-1
7.1653300E+3 8.7266692E-1
7.1661800E+3 8.8533930E-1
7.1670700E+3 8.9948694E-1
7.1679700E+3 9.1355372E-1
7.1688600E+3 9.2885106E-1
7.1697600E+3 9.4346317E-1
7.1706500E+3 9.5804552E-1
7.1715900E+3 9.7358617E-1
7.1724800E+3 9.8856863E-1
7.1734200E+3 1.0050346E+0
7.1743400E+3 1.0201070E+0
7.1752800E+3 1.0327015E+0
7.1762200E+3 1.0402554E+0
7.1771800E+3 1.0448979E+0
7.1781700E+3 1.0468462E+0
7.1791100E+3 1.0466275E+0
7.1800900E+3 1.0446662E+0
7.1810500E+3 1.0421089E+0
7.1820400E+3 1.0394605E+0
7.1830200E+3 1.0375547E+0
7.1840300E+3 1.0362747E+0
7.1850400E+3 1.0357586E+0
7.1860500E+3 1.0356723E+0
7.1871000E+3 1.0359459E+0
7.1881100E+3 1.0362784E+0
7.1891600E+3 1.0363228E+0
7.1901700E+3 1.0363154E+0
7.1912300E+3 1.0360718E+0
7.1922800E+3 1.0359013E+0
7.1933600E+3 1.0359113E+0
7.1944100E+3 1.0361881E+0
7.1955100E+3 1.0365260E+0
7.1965600E+3 1.0361966E+0
7.1976900E+3 1.0348237E+0
7.1987400E+3 1.0330605E+0
7.1998900E+3 1.0301007E+0
7.2009700E+3 1.0267775E+0
7.2021100E+3 1.0224842E+0
7.2032100E+3 1.0183378E+0
7.2043600E+3 1.0143690E+0
7.2054800E+3 1.0101474E+0
7.2066500E+3 1.0031525E+0
7.2077800E+3 9.9754417E-1
7.2089400E+3 9.9244534E-1
7.2100900E+3 9.8788111E-1
7.2112800E+3 9.8353609E-1
7.2124300E+3 9.8021171E-1
7.2136500E+3 9.7710598E-1
7.2148200E+3 9.7407616E-1
7.2160100E+3 9.7172945E-1
7.2172500E+3 9.7017621E-1
7.2184200E+3 9.6886494E-1
7.2196600E+3 9.6816915E-1
7.2208800E+3 9.6813950E-1
7.2221400E+3 9.6860842E-1
7.2233600E+3 9.6964356E-1
7.2246000E+3 9.7128066E-1
7.2258500E+3 9.7353163E-1
7.2271300E+3 9.7619515E-1
7.2284000E+3 9.7878411E-1
7.2296600E+3 9.8076315E-1
7.2309500E+3 9.8245843E-1
7.2322200E+3 9.8401741E-1
7.2335500E+3 9.8561319E-1
7.2348200E+3 9.8716056E-1
7.2361500E+3 9.8899569E-1
7.2374600E+3 9.9096079E-1
7.2388000E+3 9.9266966E-1
7.2401100E+3 9.9423313E-1
7.2414200E+3 9.9578386E-1
7.2428100E+3 9.9557887E-1
7.2441700E+3 9.9579357E-1
7.2455000E+3 9.9516497E-1
7.2468600E+3 9.9377432E-1
7.2482500E+3 9.9268543E-1
7.2496100E+3 9.9186917E-1
7.2509900E+3 9.9132191E-1
7.2523800E+3 9.9149949E-1
7.2537900E+3 9.9168612E-1
7.2552200E+3 9.9226626E-1
7.2565800E+3 9.9363469E-1
7.2580100E+3 9.9583207E-1
7.2594500E+3 9.9850721E-1
7.2608800E+3 1.0017157E+0
7.2623100E+3 1.0045662E+0
7.2637700E+3 1.0070732E+0
7.2652100E+3 1.0137201E+0
7.2666900E+3 1.0146124E+0
7.2681500E+3 1.0175155E+0
7.2696000E+3 1.0200820E+0
7.2710900E+3 1.0223442E+0
7.2725900E+3 1.0249260E+0
7.2740800E+3 1.0269916E+0
7.2756100E+3 1.0289035E+0
7.2770900E+3 1.0300275E+0
7.2786000E+3 1.0307309E+0
7.2801300E+3 1.0301406E+0
7.2816200E+3 1.0294356E+0
7.2831700E+3 1.0281377E+0
7.2847500E+3 1.0262660E+0
7.2862600E+3 1.0238326E+0
7.2878200E+3 1.0209508E+0
7.2894000E+3 1.0173002E+0
7.2909600E+3 1.0139258E+0
7.2925400E+3 1.0106615E+0
7.2941400E+3 1.0075583E+0
7.2957300E+3 1.0048711E+0
7.2973100E+3 1.0030779E+0
7.2989000E+3 1.0012459E+0
7.3005500E+3 9.9956454E-1
7.3021400E+3 9.9801151E-1
7.3037700E+3 9.9651402E-1
7.3053800E+3 9.9492601E-1
7.3070300E+3 9.9372886E-1
7.3086700E+3 9.9309225E-1
7.3103300E+3 9.9232841E-1
7.3119900E+3 9.9188230E-1
7.3136500E+3 9.9104746E-1
7.3153100E+3 9.9061090E-1
7.3169900E+3 9.8998645E-1
7.3186700E+3 9.8998112E-1
7.3203800E+3 9.9055311E-1
7.3220700E+3 9.9218887E-1
7.3237800E+3 9.9484025E-1
7.3254900E+3 9.9589738E-1
7.3272000E+3 9.9849023E-1
7.3289400E+3 1.0031096E+0
7.3307000E+3 1.0050498E+0
7.3324100E+3 1.0066034E+0
7.3341700E+3 1.0086326E+0
7.3359100E+3 1.0102706E+0
7.3376700E+3 1.0113148E+0
7.3394300E+3 1.0121098E+0
7.3412200E+3 1.0123709E+0
7.3430100E+3 1.0122045E+0
7.3448200E+3 1.0118617E+0
7.3466100E+3 1.0109822E+0
7.3484000E+3 1.0094806E+0
7.3501900E+3 1.0078069E+0
7.3520100E+3 1.0059911E+0
7.3538500E+3 1.0041875E+0
7.3556900E+3 1.0022246E+0
7.3575300E+3 1.0003993E+0
7.3593500E+3 9.9897720E-1
7.3611900E+3 9.9767139E-1
7.3630400E+3 9.9666643E-1
7.3649300E+3 9.9556643E-1
7.3668000E+3 9.9523045E-1
7.3686700E+3 9.9505276E-1
7.3705400E+3 9.9549703E-1
7.3724400E+3 9.9649292E-1
7.3743500E+3 9.9752295E-1
7.3762500E+3 9.9888439E-1
7.3781500E+3 1.0002116E+0
7.3800500E+3 1.0016090E+0
7.3820000E+3 1.0032013E+0
7.3839400E+3 1.0050558E+0
7.3859200E+3 1.0072876E+0
7.3878400E+3 1.0068175E+0
7.3897900E+3 1.0071523E+0
7.3917000E+3 1.0080353E+0
7.3937000E+3 1.0082850E+0
7.3956800E+3 1.0085762E+0
7.3976800E+3 1.0086318E+0
7.3996800E+3 1.0084746E+0
7.4016400E+3 1.0084130E+0
7.4036200E+3 1.0082531E+0
7.4056300E+3 1.0082319E+0
7.4076600E+3 1.0082408E+0
7.4096700E+3 1.0083773E+0
7.4117300E+3 1.0082065E+0
7.4137600E+3 1.0078894E+0
7.4158000E+3 1.0072894E+0
7.4178600E+3 1.0061443E+0
7.4198900E+3 1.0051208E+0
7.4219600E+3 1.0039754E+0
7.4240000E+3 1.0027657E+0
7.4260800E+3 1.0018246E+0
7.4281700E+3 9.9956434E-1
7.4345000E+3 9.9768617E-1
7.4365900E+3 9.9675559E-1
7.4386900E+3 9.9687803E-1
7.4408100E+3 9.9617120E-1
7.4429500E+3 9.9627325E-1
7.4451000E+3 9.9637951E-1
7.4472200E+3 9.9651477E-1
7.4493700E+3 9.9698858E-1
7.4515500E+3 9.9754787E-1
7.4537000E+3 9.9808089E-1
7.4558800E+3 9.9862019E-1
7.4580500E+3 9.9924808E-1
7.4602800E+3 9.9986395E-1
7.4624400E+3 1.0003842E+0
7.4646400E+3 1.0008406E+0
7.4668500E+3 1.0011579E+0
7.4690600E+3 1.0013199E+0
7.4712700E+3 1.0014671E+0
7.4735300E+3 1.0018597E+0
7.4757400E+3 1.0015897E+0
7.4779800E+3 1.0025207E+0
7.4802400E+3 1.0026334E+0
7.4824800E+3 1.0030550E+0
7.4847500E+3 1.0035356E+0
7.4870400E+3 1.0040107E+0
7.4892800E+3 1.0044646E+0
7.4915800E+3 1.0045263E+0
7.4938700E+3 1.0042185E+0
7.4961700E+3 1.0042179E+0
7.4984700E+3 1.0038096E+0
7.5007700E+3 1.0031129E+0
7.5031200E+3 1.0025615E+0
7.5053900E+3 1.0018774E+0
7.5077500E+3 1.0013962E+0
7.5100800E+3 1.0012044E+0
7.5124100E+3 1.0010347E+0
7.5147600E+3 1.0008814E+0
7.5171200E+3 1.0008240E+0
7.5194800E+3 1.0006276E+0
7.5218700E+3 1.0006164E+0
7.5242300E+3 1.0005645E+0
7.5266400E+3 1.0004745E+0
7.5290100E+3 1.0003610E+0
7.5314000E+3 1.0003628E+0
7.5338200E+3 1.0005488E+0
7.5362600E+3 1.0009427E+0
7.5386600E+3 1.0012918E+0
7.5410800E+3 1.0017093E+0
7.5435100E+3 1.0020703E+0
7.5459600E+3 1.0023772E+0
7.5484100E+3 1.0025108E+0
7.5508600E+3 1.0024435E+0
7.5533100E+3 1.0026122E+0
7.5557700E+3 1.0023664E+0
7.5582500E+3 1.0022130E+0
7.5607400E+3 1.0020782E+0
7.5632500E+3 1.0020372E+0
7.5657400E+3 1.0018080E+0
7.5682500E+3 1.0019634E+0
7.5707400E+3 1.0016224E+0
7.5732600E+3 1.0018776E+0
7.5758000E+3 1.0022051E+0
7.5783200E+3 1.0020643E+0
7.5808700E+3 1.0023534E+0
7.5833900E+3 1.0023653E+0
7.5859400E+3 1.0023127E+0
7.5884900E+3 1.0020649E+0
7.5910500E+3 1.0021439E+0
7.5936300E+3 1.0017841E+0
7.5961900E+3 1.0015157E+0
7.5987900E+3 1.0011450E+0
7.6013800E+3 1.0009476E+0
7.6039700E+3 1.0007564E+0
7.6065800E+3 1.0005840E+0
7.6092200E+3 1.0005168E+0
7.6118200E+3 1.0005357E+0
7.6144100E+3 1.0004693E+0
7.6170300E+3 1.0007163E+0
7.6196800E+3 1.0005431E+0
7.6223300E+3 1.0005186E+0
7.6249800E+3 1.0003396E+0
7.6276400E+3 1.0002114E+0
7.6302900E+3 1.0003419E+0
7.6330000E+3 1.0000780E+0
7.6356600E+3 1.0002485E+0
7.6383500E+3 1.0000653E+0
7.6410100E+3 1.0000601E+0
7.6437000E+3 9.9991901E-1
7.6464200E+3 1.0000509E+0
7.6491400E+3 1.0002057E+0
7.6518600E+3 1.0001695E+0
7.6546100E+3 1.0003610E+0
7.6573300E+3 1.0005253E+0
7.6600800E+3 1.0006929E+0
7.6628400E+3 1.0009227E+0
7.6655700E+3 1.0009331E+0
7.6738800E+3 1.0016955E+0
7.6766400E+3 1.0020424E+0
7.6794600E+3 1.0019891E+0
7.6822500E+3 1.0020712E+0
7.6850500E+3 1.0018435E+0
7.6878700E+3 1.0018663E+0
7.7048800E+3 1.0013788E+0
7.7077000E+3 1.0014965E+0
7.7106100E+3 1.0016946E+0
7.7134800E+3 1.0016293E+0
7.7163500E+3 1.0014602E+0
7.7192200E+3 1.0014385E+0
7.7221000E+3 1.0012727E+0
7.7250000E+3 1.0011562E+0
7.7279300E+3 1.0010875E+0
7.7308400E+3 1.0009757E+0
7.7337200E+3 1.0009269E+0
7.7366600E+3 1.0008332E+0
7.7396000E+3 1.0005831E+0
7.7425400E+3 1.0004867E+0
7.7454900E+3 1.0004098E+0
7.7484600E+3 1.0002022E+0
7.7514600E+3 1.0003303E+0
7.7543800E+3 1.0004387E+0
7.7573600E+3 1.0002040E+0
7.7603400E+3 1.0005057E+0
7.7633300E+3 1.0005730E+0
7.7663400E+3 1.0006136E+0
7.7693300E+3 1.0006212E+0
7.7723700E+3 1.0002889E+0
7.7753900E+3 1.0009457E+0
7.7784100E+3 1.0009242E+0
7.7814400E+3 1.0010667E+0
7.7844600E+3 1.0008949E+0
7.7875500E+3 1.0009032E+0
7.7905800E+3 1.0009904E+0
7.7936400E+3 1.0011256E+0
7.7966700E+3 1.0008950E+0
7.7997600E+3 1.0010818E+0
7.8028300E+3 1.0010501E+0
7.8059300E+3 1.0010117E+0
7.8090300E+3 1.0012215E+0
7.8121300E+3 1.0011361E+0
7.8152000E+3 1.0010952E+0
7.8183400E+3 1.0010898E+0
7.8214700E+3 1.0010100E+0
7.8245800E+3 1.0012313E+0
7.8277000E+3 1.0006796E+0
7.8308700E+3 1.0006842E+0
7.8340100E+3 1.0003958E+0
7.8371600E+3 1.0002727E+0
7.8402800E+3 1.0001032E+0
7.8435100E+3 1.0000172E+0
7.8466700E+3 9.9982717E-1
7.8497800E+3 9.9980494E-1
7.8530400E+3 9.9988361E-1
7.8562100E+3 9.9979527E-1
7.8594200E+3 9.9968378E-1
7.8625900E+3 9.9966769E-1
7.8657900E+3 9.9970208E-1
7.8690200E+3 9.9966605E-1
7.8722500E+3 9.9957959E-1
7.8755100E+3 9.9992752E-1
7.8787700E+3 9.9999551E-1
7.8819600E+3 9.9989152E-1
7.8852800E+3 1.0000284E+0
7.8885200E+3 1.0000434E+0
7.8917900E+3 9.9998871E-1
7.8950700E+3 1.0000334E+0
7.8982900E+3 9.9999310E-1
7.9016800E+3 1.0000249E+0
7.9049100E+3 9.9983157E-1
7.9082300E+3 9.9963465E-1
7.9116000E+3 9.9966968E-1
7.9148100E+3 9.9953657E-1
7.9182400E+3 9.9954623E-1
7.9215700E+3 9.9948440E-1
7.9248700E+3 9.9951757E-1
7.9282300E+3 9.9930791E-1
7.9315600E+3 9.9923614E-1
7.9348700E+3 9.9914450E-1
7.9382600E+3 9.9854034E-1
7.9416600E+3 9.9900074E-1
7.9450300E+3 9.9885132E-1
7.9483800E+3 9.9856697E-1
7.9517600E+3 9.9843411E-1
7.9552500E+3 9.9842041E-1
7.9586600E+3 9.9825034E-1
7.9620000E+3 9.9799587E-1
7.9654100E+3 9.9788333E-1
7.9689200E+3 9.9801329E-1
7.9723100E+3 9.9767264E-1
7.9757100E+3 9.9751084E-1
7.9791400E+3 9.9750064E-1
7.9826600E+3 9.9747908E-1
7.9860900E+3 9.9728092E-1
7.9895300E+3 9.9726387E-1
7.9930000E+3 9.9722452E-1
7.9965900E+3 9.9732368E-1
8.0000900E+3 9.9721251E-1
8.0034900E+3 9.9704338E-1
8.0069700E+3 9.9709083E-1
8.0105600E+3 9.9730233E-1
8.0140000E+3 9.9692858E-1
8.0175200E+3 9.9695990E-1
8.0210900E+3 9.9676850E-1
8.0246700E+3 9.9676450E-1
8.0281500E+3 9.9651581E-1
8.0316800E+3 9.9637772E-1
8.0353000E+3 9.9637560E-1
8.0388600E+3 9.9618364E-1
8.0423800E+3 9.9610232E-1
8.0460300E+3 9.9426146E-1
8.0496100E+3 9.9591851E-1
8.0532400E+3 9.9568056E-1
8.0567200E+3 9.9549880E-1
8.0604100E+3 9.9548257E-1
8.0639500E+3 9.9511477E-1
8.0676500E+3 9.9526574E-1
8.0712700E+3 9.9502621E-1
8.0749000E+3 9.9491959E-1
8.0785300E+3 9.9473156E-1
8.0821700E+3 9.9450855E-1
8.0858000E+3 9.9419685E-1
