#%Name: Fe2O3/ Hematite
#%Empirical formula: Fe3+2O3 /webmineral
#%Mineral group: oxides
#%Xtal system: Hexagonal   
#%Edge: K
#%Sample prep: 
#%Beamline: ALS 10.3.2, HxV slits = 300x50 um
#%Det:  I0=N2, Fluorescence mode (Ge solid state 7elts)
#%Ref/notes:  Fe2O3 from Lytle filter
#%Temp: Room temp (28C)
#%Time&date: 1:20 AM 7/23/2004
#%Provider: Matthew A. Marcus, Yoo.
#%============================================================
6.9119918E+3 4.2812539E-4
6.9170067E+3 4.8662215E-4
6.9220293E+3 5.1622174E-4
6.9269377E+3 3.4274562E-4
6.9319754E+3 3.7743169E-4
6.9369800E+3 4.7519665E-4
6.9420329E+3 4.0703298E-4
6.9468894E+3 3.0506202E-4
6.9519983E+3 4.1865601E-4
6.9570331E+3 3.4603630E-4
6.9619936E+3 3.7754637E-4
6.9670024E+3 3.9378912E-4
6.9720600E+3 4.3760985E-4
6.9769604E+3 3.3697108E-4
6.9819918E+3 5.0067084E-4
6.9869481E+3 5.1777869E-4
6.9919946E+3 5.1218618E-4
6.9969243E+3 5.0327000E-4
7.0019443E+3 4.5027960E-4
7.0070965E+3 6.0390579E-4
7.0119652E+3 5.4745648E-4
7.0170077E+3 6.5270665E-4
7.0219326E+3 5.4398686E-4
7.0268646E+3 5.8420053E-4
7.0320133E+3 7.3947250E-4
7.0369601E+3 7.2600776E-4
7.0419562E+3 8.5577071E-4
7.0470439E+3 9.6569034E-4
7.0520128E+3 1.0689100E-3
7.0569468E+3 1.2669752E-3
7.0620570E+3 1.4744082E-3
7.0669634E+3 1.5891171E-3
7.0720464E+3 1.8279534E-3
7.0770522E+3 2.2321395E-3
7.0819378E+3 2.7087027E-3
7.0823629E+3 2.7086712E-3
7.0829157E+3 2.7933289E-3
7.0834261E+3 2.7385599E-3
7.0839365E+3 2.8549643E-3
7.0845321E+3 2.8860826E-3
7.0849150E+3 2.9190658E-3
7.0854682E+3 2.9252679E-3
7.0859364E+3 3.0223445E-3
7.0864898E+3 2.9291909E-3
7.0869581E+3 2.9594611E-3
7.0875117E+3 3.0314046E-3
7.0878949E+3 2.9760784E-3
7.0884486E+3 3.1485437E-3
7.0890024E+3 3.1845533E-3
7.0895137E+3 3.1740441E-3
7.0899398E+3 3.2512852E-3
7.0904512E+3 3.3175986E-3
7.0910479E+3 3.4143991E-3
7.0914316E+3 3.3934170E-3
7.0919432E+3 3.5343819E-3
7.0924976E+3 3.5782775E-3
7.0929667E+3 3.6017167E-3
7.0934786E+3 3.7656466E-3
7.0939479E+3 3.8022905E-3
7.0944172E+3 3.8639356E-3
7.0949720E+3 3.9690665E-3
7.0954415E+3 4.0471257E-3
7.0959537E+3 4.1468722E-3
7.0963379E+3 4.2380511E-3
7.0970211E+3 4.3894700E-3
7.0974482E+3 4.5479445E-3
7.0979180E+3 4.6887622E-3
7.0985160E+3 4.8357223E-3
7.0989433E+3 4.9400915E-3
7.0994560E+3 5.1803586E-3
7.0999689E+3 5.3797797E-3
7.1004391E+3 5.4759611E-3
7.1009948E+3 5.4543618E-3
7.1015079E+3 5.7115836E-3
7.1019783E+3 5.9044872E-3
7.1024915E+3 6.0947409E-3
7.1029620E+3 6.3250977E-3
7.1034754E+3 6.6667812E-3
7.1039888E+3 6.8315947E-3
7.1044167E+3 7.1862638E-3
7.1051015E+3 7.6633431E-3
7.1053584E+3 7.9634688E-3
7.1058721E+3 8.4000150E-3
7.1064715E+3 8.8451305E-3
7.1069426E+3 9.3910210E-3
7.1074994E+3 1.0054856E-2
7.1079706E+3 1.0746565E-2
7.1084419E+3 1.1512955E-2
7.1089561E+3 1.2487157E-2
7.1094704E+3 1.3718182E-2
7.1099847E+3 1.5412067E-2
7.1104563E+3 1.7837274E-2
7.1109279E+3 2.1391434E-2
7.1115282E+3 2.6518409E-2
7.1120000E+3 3.7465320E-2
7.1124718E+3 4.9370463E-2
7.1129866E+3 5.7023736E-2
7.1134586E+3 6.5263689E-2
7.1139306E+3 6.9483136E-2
7.1144457E+3 6.6594311E-2
7.1149608E+3 6.3973616E-2
7.1155189E+3 6.4256171E-2
7.1159483E+3 6.6321091E-2
7.1165065E+3 6.9281243E-2
7.1168931E+3 7.1737908E-2
7.1174945E+3 7.4662200E-2
7.1179671E+3 7.8959470E-2
7.1184397E+3 8.5464948E-2
7.1189554E+3 9.6484077E-2
7.1194712E+3 1.1259543E-1
7.1199441E+3 1.3461017E-1
7.1205030E+3 1.6783929E-1
7.1209760E+3 2.1074979E-1
7.1214491E+3 2.6128579E-1
7.1220082E+3 3.3440738E-1
7.1224384E+3 4.0579805E-1
7.1229547E+3 4.7814827E-1
7.1235142E+3 5.4610150E-1
7.1239446E+3 6.0363659E-1
7.1244611E+3 6.7015469E-1
7.1249777E+3 7.4643148E-1
7.1254083E+3 8.1639598E-1
7.1260112E+3 8.9961796E-1
7.1264419E+3 9.8279236E-1
7.1269588E+3 1.0655589E+0
7.1274758E+3 1.1405417E+0
7.1279928E+3 1.2093701E+0
7.1285100E+3 1.2733271E+0
7.1289841E+3 1.3128625E+0
7.1295014E+3 1.3358526E+0
7.1299325E+3 1.3451822E+0
7.1304931E+3 1.3530303E+0
7.1309675E+3 1.3662390E+0
7.1315282E+3 1.3861012E+0
7.1320027E+3 1.4119002E+0
7.1324342E+3 1.4307649E+0
7.1329952E+3 1.4363192E+0
7.1334699E+3 1.4273408E+0
7.1339447E+3 1.4071335E+0
7.1344628E+3 1.3804871E+0
7.1349377E+3 1.3522438E+0
7.1354559E+3 1.3246574E+0
7.1360174E+3 1.3014813E+0
7.1364493E+3 1.2848510E+0
7.1370109E+3 1.2693221E+0
7.1374430E+3 1.2546313E+0
7.1379616E+3 1.2349954E+0
7.1383938E+3 1.2152163E+0
7.1389558E+3 1.1926929E+0
7.1394746E+3 1.1681741E+0
7.1399502E+3 1.1447621E+0
7.1404692E+3 1.1222563E+0
7.1409449E+3 1.1038784E+0
7.1415073E+3 1.0854950E+0
7.1419400E+3 1.0706609E+0
7.1425025E+3 1.0572294E+0
7.1429353E+3 1.0487668E+0
7.1434980E+3 1.0423372E+0
7.1439742E+3 1.0388349E+0
7.1444937E+3 1.0376471E+0
7.1450567E+3 1.0380440E+0
7.1454465E+3 1.0397225E+0
7.1459229E+3 1.0417090E+0
7.1464428E+3 1.0420766E+0
7.1470060E+3 1.0399739E+0
7.1474394E+3 1.0353930E+0
7.1479595E+3 1.0279714E+0
7.1484363E+3 1.0183443E+0
7.1489565E+3 1.0067787E+0
7.1494769E+3 9.9389769E-1
7.1499539E+3 9.8260903E-1
7.1504744E+3 9.7117718E-1
7.1509515E+3 9.6094857E-1
7.1515155E+3 9.5105668E-1
7.1519494E+3 9.4212315E-1
7.1524702E+3 9.3305838E-1
7.1529911E+3 9.2511400E-1
7.1535120E+3 9.1594068E-1
7.1539462E+3 9.0796386E-1
7.1544672E+3 8.9955387E-1
7.1549884E+3 8.9105592E-1
7.1555096E+3 8.8249617E-1
7.1559875E+3 8.7462723E-1
7.1564654E+3 8.6669938E-1
7.1569869E+3 8.6014681E-1
7.1574650E+3 8.5344899E-1
7.1579431E+3 8.4802352E-1
7.1585083E+3 8.4365337E-1
7.1589431E+3 8.4043370E-1
7.1594649E+3 8.3835454E-1
7.1599868E+3 8.3752175E-1
7.1604653E+3 8.3770663E-1
7.1609874E+3 8.3852249E-1
7.1614660E+3 8.4010003E-1
7.1619882E+3 8.4204011E-1
7.1639908E+3 8.5557113E-1
7.1659945E+3 8.7202757E-1
7.1679994E+3 8.9358021E-1
7.1700055E+3 9.2605493E-1
7.1720127E+3 9.6965266E-1
7.1740211E+3 1.0190601E+0
7.1759870E+3 1.0541124E+0
7.1779977E+3 1.0726596E+0
7.1800096E+3 1.0817312E+0
7.1820227E+3 1.0832456E+0
7.1839931E+3 1.0794125E+0
7.1860085E+3 1.0744768E+0
7.1879813E+3 1.0705916E+0
7.1900429E+3 1.0667056E+0
7.1920179E+3 1.0601306E+0
7.1939941E+3 1.0502017E+0
7.1960153E+3 1.0397890E+0
7.1979938E+3 1.0300776E+0
7.2000613E+3 1.0197444E+0
7.2019981E+3 1.0081282E+0
7.2039800E+3 9.9699558E-1
7.2060071E+3 9.8912568E-1
7.2079912E+3 9.8422157E-1
7.2100207E+3 9.8140126E-1
7.2120071E+3 9.8036484E-1
7.2139948E+3 9.8145679E-1
7.2160277E+3 9.8525315E-1
7.2180176E+3 9.9174321E-1
7.2199644E+3 9.9841370E-1
7.2220009E+3 1.0025823E+0
7.2239943E+3 1.0041985E+0
7.2259887E+3 1.0038954E+0
7.2279844E+3 1.0014121E+0
7.2299812E+3 9.9774187E-1
7.2319791E+3 9.9458373E-1
7.2339782E+3 9.9434729E-1
7.2359784E+3 9.9581282E-1
7.2379798E+3 9.9810484E-1
7.2399824E+3 9.9930976E-1
7.2419861E+3 9.9881817E-1
7.2439909E+3 9.9553914E-1
7.2459969E+3 9.9040692E-1
7.2480041E+3 9.8578024E-1
7.2499677E+3 9.8312344E-1
7.2520219E+3 9.8215709E-1
7.2539878E+3 9.8300608E-1
7.2559996E+3 9.8602199E-1
7.2580125E+3 9.9128324E-1
7.2600266E+3 9.9814557E-1
7.2619970E+3 1.0042348E+0
7.2640134E+3 1.0111202E+0
7.2659861E+3 1.0142550E+0
7.2680048E+3 1.0176978E+0
7.2699798E+3 1.0182090E+0
7.2720008E+3 1.0184084E+0
7.2739780E+3 1.0198742E+0
7.2760013E+3 1.0236847E+0
7.2779808E+3 1.0278327E+0
7.2800065E+3 1.0308606E+0
7.2819882E+3 1.0322966E+0
7.2840162E+3 1.0329407E+0
7.2860002E+3 1.0322328E+0
7.2879853E+3 1.0303664E+0
7.2900168E+3 1.0281928E+0
7.2920042E+3 1.0259763E+0
7.2939927E+3 1.0240344E+0
7.2959824E+3 1.0215728E+0
7.2980185E+3 1.0182800E+0
7.3000105E+3 1.0144367E+0
7.3020035E+3 1.0098824E+0
7.3039978E+3 1.0049435E+0
7.3059931E+3 9.9973368E-1
7.3079896E+3 9.9492590E-1
7.3099873E+3 9.9057851E-1
7.3119860E+3 9.8563523E-1
7.3139859E+3 9.8073010E-1
7.3159869E+3 9.7598297E-1
7.3179891E+3 9.7200251E-1
7.3199924E+3 9.6960294E-1
7.3219969E+3 9.6954171E-1
7.3240025E+3 9.7140749E-1
7.3260092E+3 9.7469537E-1
7.3280171E+3 9.7986318E-1
7.3299805E+3 9.8534063E-1
7.3319906E+3 9.9119551E-1
7.3340019E+3 9.9714554E-1
7.3360143E+3 1.0027504E+0
7.3379821E+3 1.0079933E+0
7.3399969E+3 1.0126406E+0
7.3420127E+3 1.0163213E+0
7.3439839E+3 1.0185061E+0
7.3460020E+3 1.0192716E+0
7.3480213E+3 1.0187409E+0
7.3499958E+3 1.0167823E+0
7.3520174E+3 1.0146341E+0
7.3539941E+3 1.0128325E+0
7.3560180E+3 1.0108588E+0
7.3579970E+3 1.0094062E+0
7.3599770E+3 1.0074594E+0
7.3620043E+3 1.0049687E+0
7.3639866E+3 1.0022795E+0
7.3659701E+3 9.9947604E-1
7.3680470E+3 9.9660002E-1
7.3699865E+3 9.9365627E-1
7.3720195E+3 9.9112706E-1
7.3740074E+3 9.8907816E-1
7.3759965E+3 9.8792826E-1
7.3779866E+3 9.8725762E-1
7.3799779E+3 9.8692086E-1
7.3820167E+3 9.8647545E-1
7.3840102E+3 9.8589300E-1
7.3860048E+3 9.8559445E-1
7.3880006E+3 9.8480290E-1
7.3899975E+3 9.8466313E-1
7.3919955E+3 9.8467242E-1
7.3939947E+3 9.8579282E-1
7.3959950E+3 9.8744395E-1
7.3979963E+3 9.9008738E-1
7.3999989E+3 9.9335929E-1
7.4020025E+3 9.9662671E-1
7.4040073E+3 1.0001442E+0
7.4060132E+3 1.0031827E+0
7.4080202E+3 1.0059418E+0
7.4099349E+3 1.0084444E+0
7.4119909E+3 1.0103552E+0
7.4140013E+3 1.0114087E+0
7.4160128E+3 1.0123242E+0
7.4179786E+3 1.0124357E+0
7.4199924E+3 1.0117844E+0
7.4220073E+3 1.0110985E+0
7.4240233E+3 1.0096207E+0
7.4259936E+3 1.0076868E+0
7.4280119E+3 1.0056410E+0
7.4299373E+3 1.0035556E+0
7.4320049E+3 1.0017381E+0
7.4339795E+3 9.9940282E-1
7.4360023E+3 9.9687225E-1
7.4379792E+3 9.9446485E-1
7.4400042E+3 9.9198145E-1
7.4419833E+3 9.8951946E-1
7.4440106E+3 9.8741387E-1
7.4459919E+3 9.8586261E-1
7.4480215E+3 9.8475987E-1
7.4500050E+3 9.8400787E-1
7.4519896E+3 9.8359673E-1
7.4540225E+3 9.8368718E-1
7.4560094E+3 9.8474810E-1
7.4579973E+3 9.8525520E-1
7.4599863E+3 9.8666136E-1
7.4619764E+3 9.8782236E-1
7.4640151E+3 9.8903264E-1
7.4660074E+3 9.9027347E-1
7.4679534E+3 9.9119736E-1
7.4699954E+3 9.9221048E-1
7.4719911E+3 9.9338362E-1
7.4739878E+3 9.9474772E-1
7.4759857E+3 9.9607163E-1
7.4779847E+3 9.9743199E-1
7.4799848E+3 9.9812120E-1
7.4820337E+3 9.9890395E-1
7.4839883E+3 9.9938422E-1
7.4859918E+3 9.9962603E-1
7.4879963E+3 9.9983538E-1
7.4900020E+3 9.9964643E-1
7.4920087E+3 9.9934333E-1
7.4939688E+3 9.9898939E-1
7.4959778E+3 9.9873817E-1
7.4978921E+3 9.9836819E-1
7.4999991E+3 9.9819706E-1
7.5020114E+3 9.9804990E-1
7.5039769E+3 9.9849995E-1
7.5059915E+3 9.9659959E-1
7.5080072E+3 9.9747789E-1
7.5099759E+3 9.9710948E-1
7.5118977E+3 9.9695444E-1
7.5140128E+3 9.9664947E-1
7.5159849E+3 9.9639096E-1
7.5180061E+3 9.9648856E-1
7.5199803E+3 9.9658689E-1
7.5220520E+3 9.9677615E-1
7.5239802E+3 9.9709525E-1
7.5260059E+3 9.9788568E-1
7.5279845E+3 9.9749832E-1
7.5300124E+3 9.9751719E-1
7.5319931E+3 9.9745508E-1
7.5340233E+3 9.9764248E-1
7.5359579E+3 9.9775531E-1
7.5379903E+3 9.9796990E-1
7.5400238E+3 9.9829937E-1
7.5420101E+3 9.9873860E-1
7.5439974E+3 9.9912637E-1
7.5459858E+3 9.9979932E-1
7.5480723E+3 1.0002333E+0
7.5500144E+3 1.0004454E+0
7.5520060E+3 1.0009269E+0
7.5539988E+3 1.0010312E+0
7.5559440E+3 1.0011007E+0
7.5580363E+3 1.0014703E+0
7.5599837E+3 1.0015936E+0
7.5619321E+3 1.0016782E+0
7.5639790E+3 1.0018710E+0
7.5659784E+3 1.0017666E+0
7.5679788E+3 1.0024805E+0
7.5699803E+3 1.0029278E+0
7.5719829E+3 1.0031571E+0
7.5739378E+3 1.0031430E+0
7.5759915E+3 1.0032619E+0
7.5779974E+3 1.0033366E+0
7.5800044E+3 1.0033319E+0
7.5820125E+3 1.0034640E+0
7.5839727E+3 1.0035714E+0
7.5858850E+3 1.0039042E+0
7.5879944E+3 1.0039566E+0
7.5899579E+3 1.0044676E+0
7.5920206E+3 1.0043156E+0
7.5939862E+3 1.0044538E+0
7.5960020E+3 1.0043243E+0
7.5980189E+3 1.0043168E+0
7.6000369E+3 1.0043485E+0
7.6020068E+3 1.0045191E+0
7.6040270E+3 1.0045408E+0
7.6059990E+3 1.0045808E+0
7.6080215E+3 1.0046022E+0
7.6099956E+3 1.0052059E+0
7.6120202E+3 1.0056474E+0
