#%Name: HFO, 2-line ferrihydrite.
#%Empirical formula:
#%Mineral group: 
#%Xtal system: 
#%Edge: K
#%Ref/notes:Fe reference from Jacob Frommer and Andreas Vogelin (ETH-Zurich).  
#%Ref/notes:The .xmu files are as-recieved from ETH.  All other files have had an energy shift of 1.15eV applied to bring
#%Ref/notes:them into line with our standard of Fe metal = 7110.75eV.
#%Ref/notes:The .b files are done with Manceau E0 (halfway up the edge) and k^3 weighting.
#%Ref/notes:Pre-edge subtraction: In k-space&Background remove, do Transmission Fit, then polish with Transmission+Edge fit to yield .t files.
#%Ref/notes:Post-edge normalization (.e):  Since these are long transmission scans, we get a curvy background. This background is straigher when we make the transformation x = E^(-2.7), which is a rough approximation for how absorption goes with energy.  Thus, we read the .t file into 2-Column Editor, make this transformation (which can be done in 3 mouse clicks), and run a linear background through the tail of the data.  Divide by this and go back to E (another 3 clicks) and run a 2nd-order polynomial through the data, choosing the start point so that the background goes nicely through the tail.  This removes a small amount of curvature from the far post-edge region.  Divide by the resulting background and the result is the .e file.
===============================
6.9600890E+3 8.2046623E-4
6.9649370E+3 8.5149766E-4
6.9699070E+3 8.0780689E-4
6.9749290E+3 7.4347991E-4
6.9799000E+3 7.2811419E-4
6.9848500E+3 8.1798363E-4
6.9897370E+3 8.1929308E-4
6.9947780E+3 8.0400007E-4
6.9997820E+3 9.0692603E-4
7.0047130E+3 8.6282828E-4
7.0096730E+3 8.6966320E-4
7.0145820E+3 8.6746181E-4
7.0195720E+3 9.0446691E-4
7.0245360E+3 1.0048648E-3
7.0294550E+3 1.0042454E-3
7.0344730E+3 1.1081507E-3
7.0394900E+3 1.1020134E-3
7.0444070E+3 1.1812140E-3
7.0494260E+3 1.2395317E-3
7.0513980E+3 1.2007619E-3
7.0533930E+3 1.2311110E-3
7.0554090E+3 1.2566500E-3
7.0574140E+3 1.3784567E-3
7.0594630E+3 1.4428181E-3
7.0614300E+3 1.4538757E-3
7.0634590E+3 1.5696310E-3
7.0653890E+3 1.5963852E-3
7.0673950E+3 1.7111150E-3
7.0693410E+3 1.7381792E-3
7.0713590E+3 1.8992766E-3
7.0733620E+3 2.0630920E-3
7.0753820E+3 2.0275362E-3
7.0774180E+3 2.3237018E-3
7.0794170E+3 2.4652300E-3
7.0804150E+3 2.4778358E-3
7.0814510E+3 2.5985708E-3
7.0823900E+3 2.6070688E-3
7.0834470E+3 2.8805515E-3
7.0843970E+3 2.9265614E-3
7.0854280E+3 3.0595987E-3
7.0863560E+3 3.1195884E-3
7.0873950E+3 3.2046453E-3
7.0883550E+3 3.4044808E-3
7.0893620E+3 3.5326969E-3
7.0903500E+3 3.7386525E-3
7.0913310E+3 3.9444445E-3
7.0923430E+3 4.0637254E-3
7.0933380E+3 4.2556102E-3
7.0943540E+3 4.5672533E-3
7.0952870E+3 4.7745405E-3
7.0963550E+3 5.1275902E-3
7.0973490E+3 5.2884351E-3
7.0983850E+3 5.7604783E-3
7.0993260E+3 6.0412860E-3
7.1003960E+3 6.4987034E-3
7.1013720E+3 6.9605214E-3
7.1024170E+3 7.5636247E-3
7.1033680E+3 8.0988297E-3
7.1044090E+3 8.7257022E-3
7.1053860E+3 9.6147377E-3
7.1055850E+3 9.7581149E-3
7.1057880E+3 9.9808510E-3
7.1059930E+3 1.0175697E-2
7.1062070E+3 1.0359013E-2
7.1064070E+3 1.0634630E-2
7.1066160E+3 1.0909529E-2
7.1068230E+3 1.1097335E-2
7.1070220E+3 1.1372429E-2
7.1072270E+3 1.1688306E-2
7.1073990E+3 1.1982478E-2
7.1075820E+3 1.2273808E-2
7.1077610E+3 1.2568394E-2
7.1079610E+3 1.2904051E-2
7.1081760E+3 1.3237740E-2
7.1083900E+3 1.3702806E-2
7.1086140E+3 1.4218104E-2
7.1088270E+3 1.4813664E-2
7.1090310E+3 1.5324647E-2
7.1092180E+3 1.6027335E-2
7.1094030E+3 1.6733157E-2
7.1095880E+3 1.7609656E-2
7.1097830E+3 1.8556060E-2
7.1099770E+3 1.9645549E-2
7.1101820E+3 2.1069463E-2
7.1103920E+3 2.2638172E-2
7.1105960E+3 2.4597308E-2
7.1107950E+3 2.6777406E-2
7.1110060E+3 2.9479460E-2
7.1112110E+3 3.2372686E-2
7.1114220E+3 3.6069746E-2
7.1115980E+3 4.0097993E-2
7.1117770E+3 4.4760700E-2
7.1119450E+3 4.9832254E-2
7.1121340E+3 5.5591311E-2
7.1123360E+3 6.1099067E-2
7.1125410E+3 6.6201426E-2
7.1127670E+3 7.0547957E-2
7.1129820E+3 7.3710205E-2
7.1131970E+3 7.5951317E-2
7.1133850E+3 7.7245913E-2
7.1135840E+3 7.7412859E-2
7.1137700E+3 7.6509071E-2
7.1139690E+3 7.4820489E-2
7.1141550E+3 7.2660792E-2
7.1143560E+3 7.0483150E-2
7.1145700E+3 6.8494738E-2
7.1147700E+3 6.7211928E-2
7.1149810E+3 6.6478976E-2
7.1151860E+3 6.6473072E-2
7.1153900E+3 6.6877484E-2
7.1155950E+3 6.7610247E-2
7.1157910E+3 6.8616126E-2
7.1159810E+3 6.9874236E-2
7.1161590E+3 7.1247609E-2
7.1163410E+3 7.2832588E-2
7.1165450E+3 7.4447619E-2
7.1167420E+3 7.6224714E-2
7.1169530E+3 7.8108884E-2
7.1171760E+3 8.0182494E-2
7.1173950E+3 8.2587742E-2
7.1177900E+3 8.8255890E-2
7.1181660E+3 9.5437355E-2
7.1185560E+3 1.0533188E-1
7.1189740E+3 1.1829892E-1
7.1193880E+3 1.3511609E-1
7.1198110E+3 1.5643925E-1
7.1202040E+3 1.8298571E-1
7.1205680E+3 2.1540318E-1
7.1209640E+3 2.5414908E-1
7.1214130E+3 2.9951971E-1
7.1218510E+3 3.4868868E-1
7.1222320E+3 3.9926038E-1
7.1226270E+3 4.5285239E-1
7.1230340E+3 5.0372176E-1
7.1234470E+3 5.5262788E-1
7.1238640E+3 6.0152230E-1
7.1242780E+3 6.5042447E-1
7.1246520E+3 7.0175656E-1
7.1250130E+3 7.5579102E-1
7.1254210E+3 8.1222507E-1
7.1258750E+3 8.7143595E-1
7.1262930E+3 9.3087839E-1
7.1266590E+3 9.8772117E-1
7.1270560E+3 1.0429503E+0
7.1274560E+3 1.0933080E+0
7.1278730E+3 1.1401049E+0
7.1282820E+3 1.1812381E+0
7.1286850E+3 1.2180989E+0
7.1290510E+3 1.2509929E+0
7.1294190E+3 1.2786274E+0
7.1298390E+3 1.3020661E+0
7.1302840E+3 1.3212715E+0
7.1306820E+3 1.3356089E+0
7.1310550E+3 1.3452851E+0
7.1314420E+3 1.3503274E+0
7.1318480E+3 1.3512216E+0
7.1322610E+3 1.3481462E+0
7.1326740E+3 1.3417646E+0
7.1330620E+3 1.3329790E+0
7.1334280E+3 1.3224050E+0
7.1338120E+3 1.3105033E+0
7.1342300E+3 1.2987616E+0
7.1346660E+3 1.2872513E+0
7.1350560E+3 1.2760623E+0
7.1354270E+3 1.2657927E+0
7.1358190E+3 1.2558768E+0
7.1362300E+3 1.2464254E+0
7.1366500E+3 1.2366307E+0
7.1370590E+3 1.2262766E+0
7.1374510E+3 1.2152718E+0
7.1378140E+3 1.2042099E+0
7.1382100E+3 1.1925418E+0
7.1386470E+3 1.1801727E+0
7.1390830E+3 1.1676794E+0
7.1394680E+3 1.1549989E+0
7.1398570E+3 1.1428329E+0
7.1402740E+3 1.1305779E+0
7.1406900E+3 1.1193070E+0
7.1411070E+3 1.1086369E+0
7.1415320E+3 1.0984764E+0
7.1418960E+3 1.0894490E+0
7.1422670E+3 1.0808434E+0
7.1426800E+3 1.0733523E+0
7.1431320E+3 1.0671876E+0
7.1435540E+3 1.0618752E+0
7.1439380E+3 1.0574101E+0
7.1443280E+3 1.0535788E+0
7.1447390E+3 1.0501236E+0
7.1451570E+3 1.0472482E+0
7.1455730E+3 1.0438290E+0
7.1459770E+3 1.0401916E+0
7.1463410E+3 1.0357706E+0
7.1467240E+3 1.0306130E+0
7.1471340E+3 1.0247961E+0
7.1475760E+3 1.0179829E+0
7.1479850E+3 1.0103720E+0
7.1483570E+3 1.0019510E+0
7.1487570E+3 9.9279571E-1
7.1491650E+3 9.8340323E-1
7.1495890E+3 9.7357469E-1
7.1500030E+3 9.6400436E-1
7.1503910E+3 9.5421315E-1
7.1507490E+3 9.4485411E-1
7.1511330E+3 9.3574578E-1
7.1515550E+3 9.2726968E-1
7.1521330E+3 9.1648987E-1
7.1526400E+3 9.0662469E-1
7.1531720E+3 8.9766454E-1
7.1537330E+3 8.8937683E-1
7.1542900E+3 8.8190474E-1
7.1548260E+3 8.7500187E-1
7.1553310E+3 8.6849141E-1
7.1559120E+3 8.6274025E-1
7.1565110E+3 8.5761765E-1
7.1570490E+3 8.5339018E-1
7.1575970E+3 8.4968613E-1
7.1581830E+3 8.4688007E-1
7.1587820E+3 8.4472751E-1
7.1593150E+3 8.4309167E-1
7.1598810E+3 8.4243643E-1
7.1605150E+3 8.4263458E-1
7.1611130E+3 8.4344135E-1
7.1616820E+3 8.4521988E-1
7.1623020E+3 8.4784667E-1
7.1629140E+3 8.5124456E-1
7.1635070E+3 8.5552703E-1
7.1640580E+3 8.6009564E-1
7.1647080E+3 8.6566368E-1
7.1653500E+3 8.7181577E-1
7.1659340E+3 8.7856679E-1
7.1665510E+3 8.8569616E-1
7.1671900E+3 8.9315400E-1
7.1678020E+3 9.0114761E-1
7.1683610E+3 9.0920192E-1
7.1690060E+3 9.1791190E-1
7.1696610E+3 9.2654834E-1
7.1702600E+3 9.3564705E-1
7.1708960E+3 9.4435313E-1
7.1715460E+3 9.5365551E-1
7.1721670E+3 9.6263101E-1
7.1727470E+3 9.7202430E-1
7.1734220E+3 9.8150461E-1
7.1740940E+3 9.9084777E-1
7.1747130E+3 9.9911136E-1
7.1753700E+3 1.0058024E+0
7.1760450E+3 1.0112256E+0
7.1766850E+3 1.0153511E+0
7.1773120E+3 1.0189861E+0
7.1780240E+3 1.0227398E+0
7.1786890E+3 1.0259052E+0
7.1793570E+3 1.0288757E+0
7.1800670E+3 1.0315575E+0
7.1807700E+3 1.0339613E+0
7.1814080E+3 1.0357605E+0
7.1821310E+3 1.0373810E+0
7.1828630E+3 1.0383526E+0
7.1835380E+3 1.0388348E+0
7.1842670E+3 1.0393568E+0
7.1850060E+3 1.0395259E+0
7.1856660E+3 1.0395041E+0
7.1863990E+3 1.0396374E+0
7.1871720E+3 1.0397647E+0
7.1878660E+3 1.0396486E+0
7.1886150E+3 1.0394173E+0
7.1893700E+3 1.0389010E+0
7.1900450E+3 1.0382714E+0
7.1907910E+3 1.0374275E+0
7.1915690E+3 1.0364581E+0
7.1922830E+3 1.0352478E+0
7.1930410E+3 1.0339498E+0
7.1938040E+3 1.0326551E+0
7.1944910E+3 1.0312899E+0
7.1952650E+3 1.0298257E+0
7.1960550E+3 1.0285606E+0
7.1967730E+3 1.0272136E+0
7.1975680E+3 1.0258810E+0
7.1983470E+3 1.0245171E+0
7.1990400E+3 1.0228584E+0
7.1998640E+3 1.0213715E+0
7.2006360E+3 1.0195826E+0
7.2014020E+3 1.0177314E+0
7.2022220E+3 1.0157154E+0
7.2029880E+3 1.0135180E+0
7.2037480E+3 1.0113151E+0
7.2046030E+3 1.0090419E+0
7.2053750E+3 1.0068291E+0
7.2061900E+3 1.0042468E+0
7.2070350E+3 1.0017895E+0
7.2077820E+3 9.9951358E-1
7.2086530E+3 9.9724275E-1
7.2094710E+3 9.9497346E-1
7.2102850E+3 9.9297606E-1
7.2111420E+3 9.9116464E-1
7.2119340E+3 9.8950138E-1
7.2127500E+3 9.8807193E-1
7.2136150E+3 9.8689427E-1
7.2144200E+3 9.8568488E-1
7.2152810E+3 9.8477791E-1
7.2161160E+3 9.8406586E-1
7.2169040E+3 9.8354591E-1
7.2178190E+3 9.8312673E-1
7.2186250E+3 9.8283604E-1
7.2195040E+3 9.8273573E-1
7.2203860E+3 9.8274333E-1
7.2211730E+3 9.8233435E-1
7.2221230E+3 9.8259539E-1
7.2229650E+3 9.8261740E-1
7.2238530E+3 9.8267710E-1
7.2247640E+3 9.8279458E-1
7.2255830E+3 9.8287316E-1
7.2265430E+3 9.8277723E-1
7.2274180E+3 9.8274143E-1
7.2283340E+3 9.8265105E-1
7.2292840E+3 9.8238921E-1
7.2301280E+3 9.8204723E-1
7.2311310E+3 9.8170736E-1
7.2320040E+3 9.8137370E-1
7.2329500E+3 9.8088352E-1
7.2338800E+3 9.8053887E-1
7.2347530E+3 9.7998977E-1
7.2357420E+3 9.7953041E-1
7.2366360E+3 9.7913940E-1
7.2375820E+3 9.7884757E-1
7.2384880E+3 9.7848559E-1
7.2394140E+3 9.7832449E-1
7.2403700E+3 9.7826184E-1
7.2412930E+3 9.7826872E-1
7.2422570E+3 9.7840555E-1
7.2431400E+3 9.7865806E-1
7.2441020E+3 9.7911057E-1
7.2450500E+3 9.7971598E-1
7.2460070E+3 9.8033504E-1
7.2469910E+3 9.8136287E-1
7.2478750E+3 9.8230129E-1
7.2489210E+3 9.8361005E-1
7.2498530E+3 9.8496248E-1
7.2508560E+3 9.8644423E-1
7.2518210E+3 9.8816649E-1
7.2527740E+3 9.8990723E-1
7.2537900E+3 9.9174381E-1
7.2547680E+3 9.9369119E-1
7.2557880E+3 9.9568320E-1
7.2567140E+3 9.9762958E-1
7.2577620E+3 9.9990910E-1
7.2587150E+3 1.0018656E+0
7.2597160E+3 1.0038743E+0
7.2607120E+3 1.0058686E+0
7.2616550E+3 1.0078276E+0
7.2626870E+3 1.0104737E+0
7.2636680E+3 1.0123761E+0
7.2647130E+3 1.0131490E+0
7.2656430E+3 1.0143767E+0
7.2667270E+3 1.0157556E+0
7.2676950E+3 1.0170362E+0
7.2687380E+3 1.0181378E+0
7.2697570E+3 1.0189951E+0
7.2707760E+3 1.0196651E+0
7.2718310E+3 1.0204070E+0
7.2728830E+3 1.0208932E+0
7.2739680E+3 1.0213407E+0
7.2749580E+3 1.0224572E+0
7.2760790E+3 1.0216904E+0
7.2771160E+3 1.0212711E+0
7.2782170E+3 1.0211393E+0
7.2792030E+3 1.0207210E+0
7.2803400E+3 1.0202566E+0
7.2813740E+3 1.0196929E+0
7.2824780E+3 1.0190989E+0
7.2834910E+3 1.0182586E+0
7.2845970E+3 1.0173970E+0
7.2856380E+3 1.0164314E+0
7.2867290E+3 1.0153320E+0
7.2877910E+3 1.0142520E+0
7.2888660E+3 1.0129010E+0
7.2899480E+3 1.0116992E+0
7.2910400E+3 1.0103095E+0
7.2921510E+3 1.0091077E+0
7.2932080E+3 1.0077302E+0
7.2943490E+3 1.0063843E+0
7.2954700E+3 1.0050983E+0
7.2966070E+3 1.0038926E+0
7.2976730E+3 1.0027100E+0
7.2988410E+3 1.0014778E+0
7.2999580E+3 1.0003263E+0
7.3011030E+3 9.9956213E-1
7.3021490E+3 9.9845228E-1
7.3032970E+3 9.9780049E-1
7.3043940E+3 9.9713202E-1
7.3055420E+3 9.9660628E-1
7.3066160E+3 9.9608034E-1
7.3078070E+3 9.9573277E-1
7.3089280E+3 9.9557663E-1
7.3101090E+3 9.9539605E-1
7.3111920E+3 9.9531865E-1
7.3123940E+3 9.9534171E-1
7.3135460E+3 9.9545147E-1
7.3147450E+3 9.9573875E-1
7.3158730E+3 9.9579538E-1
7.3170790E+3 9.9607303E-1
7.3182880E+3 9.9640320E-1
7.3194900E+3 9.9683771E-1
7.3206870E+3 9.9714514E-1
7.3218730E+3 9.9768105E-1
7.3230880E+3 9.9802139E-1
7.3242570E+3 9.9851333E-1
7.3255110E+3 9.9886639E-1
7.3266760E+3 9.9912898E-1
7.3279050E+3 9.9959065E-1
7.3290320E+3 9.9975342E-1
7.3303100E+3 1.0000380E+0
7.3314780E+3 1.0001551E+0
7.3327290E+3 1.0003912E+0
7.3338710E+3 1.0003489E+0
7.3351510E+3 1.0005476E+0
7.3363570E+3 1.0005661E+0
7.3376100E+3 1.0005840E+0
7.3387920E+3 1.0004237E+0
7.3400440E+3 1.0002306E+0
7.3413140E+3 1.0001883E+0
7.3425250E+3 9.9980597E-1
7.3438340E+3 9.9979799E-1
7.3450360E+3 9.9949845E-1
7.3463410E+3 9.9935859E-1
7.3475300E+3 9.9907133E-1
7.3488310E+3 9.9880747E-1
7.3500650E+3 9.9862467E-1
7.3513490E+3 9.9852750E-1
7.3525510E+3 9.9822673E-1
7.3538080E+3 9.9815827E-1
7.3550770E+3 9.9809579E-1
7.3563040E+3 9.9787691E-1
7.3576260E+3 9.9787064E-1
7.3588610E+3 9.9789764E-1
7.3601800E+3 9.9801005E-1
7.3614040E+3 9.9790209E-1
7.3627530E+3 9.9825377E-1
7.3640570E+3 9.9836501E-1
7.3653590E+3 9.9853531E-1
7.3666870E+3 9.9878577E-1
7.3679810E+3 9.9900982E-1
7.3693230E+3 9.9923040E-1
7.3705530E+3 9.9940750E-1
7.3719190E+3 9.9975951E-1
7.3732010E+3 9.9988983E-1
7.3745150E+3 1.0000891E+0
7.3758240E+3 1.0003691E+0
7.3771360E+3 1.0005430E+0
7.3784940E+3 1.0008217E+0
7.3797560E+3 1.0010572E+0
7.3811420E+3 1.0013400E+0
7.3824500E+3 1.0015805E+0
7.3837980E+3 1.0018795E+0
7.3851410E+3 1.0021841E+0
7.3864840E+3 1.0023596E+0
7.3878860E+3 1.0026513E+0
7.3891880E+3 1.0027483E+0
7.3905950E+3 1.0030673E+0
7.3919760E+3 1.0033148E+0
7.3933200E+3 1.0034245E+0
7.3947270E+3 1.0036966E+0
7.3960570E+3 1.0038005E+0
7.3974630E+3 1.0038662E+0
7.3987790E+3 1.0040135E+0
7.4001520E+3 1.0039496E+0
7.4015450E+3 1.0039017E+0
7.4028640E+3 1.0037549E+0
7.4043270E+3 1.0037060E+0
7.4057080E+3 1.0035947E+0
7.4071140E+3 1.0032931E+0
7.4085320E+3 1.0030704E+0
7.4099200E+3 1.0028494E+0
7.4114080E+3 1.0025938E+0
7.4127790E+3 1.0020058E+0
7.4142310E+3 1.0016688E+0
7.4156970E+3 1.0013358E+0
7.4170580E+3 1.0008365E+0
7.4185340E+3 1.0005291E+0
7.4199650E+3 1.0000365E+0
7.4213450E+3 9.9956230E-1
7.4228300E+3 9.9927540E-1
7.4242250E+3 9.9895795E-1
7.4256840E+3 9.9852944E-1
7.4271040E+3 9.9812056E-1
7.4285470E+3 9.9775354E-1
7.4300730E+3 9.9743944E-1
7.4314800E+3 9.9745741E-1
7.4329730E+3 9.9718406E-1
7.4344920E+3 9.9699734E-1
7.4359080E+3 9.9684241E-1
7.4374340E+3 9.9669496E-1
7.4389340E+3 9.9663943E-1
7.4403590E+3 9.9660161E-1
7.4418990E+3 9.9674749E-1
7.4433620E+3 9.9674673E-1
7.4448070E+3 9.9675608E-1
7.4463290E+3 9.9694225E-1
7.4477920E+3 9.9699064E-1
7.4493010E+3 9.9710208E-1
7.4508010E+3 9.9724386E-1
7.4522880E+3 9.9751407E-1
7.4538380E+3 9.9749381E-1
7.4553320E+3 9.9763766E-1
7.4568560E+3 9.9774849E-1
7.4584200E+3 9.9786509E-1
7.4599040E+3 9.9794323E-1
7.4614410E+3 9.9821390E-1
7.4630140E+3 9.9827332E-1
7.4644740E+3 9.9825785E-1
7.4660260E+3 9.9836554E-1
7.4675900E+3 9.9840683E-1
7.4690440E+3 9.9844574E-1
7.4706120E+3 9.9850368E-1
7.4721510E+3 9.9848587E-1
7.4736210E+3 9.9841759E-1
7.4752180E+3 9.9853818E-1
7.4767940E+3 9.9869712E-1
7.4783040E+3 9.9857313E-1
7.4799250E+3 9.9866953E-1
7.4815160E+3 9.9873722E-1
7.4830410E+3 9.9854733E-1
7.4846880E+3 9.9863686E-1
7.4862710E+3 9.9867058E-1
7.4878160E+3 9.9861745E-1
7.4894520E+3 9.9864324E-1
7.4910340E+3 9.9871490E-1
7.4925630E+3 9.9848537E-1
7.4942110E+3 9.9862585E-1
7.4958130E+3 9.9866961E-1
7.4973550E+3 9.9855996E-1
7.4990300E+3 9.9857660E-1
7.5006620E+3 9.9856705E-1
7.5022290E+3 9.9852671E-1
7.5039240E+3 9.9861066E-1
7.5056030E+3 9.9856648E-1
7.5071910E+3 9.9850749E-1
7.5088790E+3 9.9862486E-1
7.5105600E+3 9.9862530E-1
7.5121410E+3 9.9863572E-1
7.5138100E+3 9.9864640E-1
7.5154930E+3 9.9884541E-1
7.5170680E+3 9.9881733E-1
7.5187160E+3 9.9881915E-1
7.5203800E+3 9.9895781E-1
7.5219740E+3 9.9882084E-1
7.5236320E+3 9.9911253E-1
7.5253510E+3 9.9893909E-1
7.5269780E+3 9.9934783E-1
7.5286600E+3 9.9935890E-1
7.5303860E+3 9.9927844E-1
7.5320790E+3 9.9982633E-1
7.5337480E+3 9.9964510E-1
7.5354510E+3 9.9964699E-1
7.5371640E+3 9.9978203E-1
7.5388100E+3 9.9972822E-1
7.5404540E+3 9.9975843E-1
7.5421850E+3 9.9985557E-1
7.5438390E+3 9.9985225E-1
7.5454880E+3 9.9983963E-1
7.5472530E+3 9.9984540E-1
7.5489570E+3 9.9980791E-1
7.5506340E+3 9.9982149E-1
7.5524080E+3 9.9988235E-1
7.5541870E+3 9.9987418E-1
7.5558850E+3 9.9965821E-1
7.5576490E+3 9.9970633E-1
7.5594510E+3 9.9980214E-1
7.5611790E+3 9.9982064E-1
7.5629000E+3 9.9965917E-1
7.5646350E+3 9.9963103E-1
7.5664230E+3 9.9962944E-1
7.5681350E+3 9.9954068E-1
7.5698320E+3 9.9947323E-1
7.5716310E+3 9.9956903E-1
7.5733980E+3 9.9938766E-1
7.5751020E+3 9.9941340E-1
7.5769330E+3 9.9943527E-1
7.5787690E+3 9.9940944E-1
7.5805230E+3 9.9932253E-1
7.5823160E+3 9.9930245E-1
7.5841340E+3 9.9930537E-1
7.5859670E+3 9.9938417E-1
7.5877400E+3 9.9925691E-1
7.5894770E+3 9.9923000E-1
7.5913190E+3 9.9930940E-1
7.5931380E+3 9.9924925E-1
7.5948870E+3 9.9933183E-1
7.5967140E+3 9.9922765E-1
7.5985860E+3 9.9929439E-1
7.6004090E+3 9.9913699E-1
7.6022310E+3 9.9913150E-1
7.6040480E+3 9.9914157E-1
7.6059420E+3 9.9913329E-1
7.6078120E+3 9.9915183E-1
7.6095930E+3 9.9917954E-1
7.6114710E+3 9.9911517E-1
7.6133570E+3 9.9935859E-1
7.6151770E+3 9.9931824E-1
7.6169930E+3 9.9941590E-1
7.6188130E+3 9.9934536E-1
7.6206960E+3 9.9941538E-1
7.6225410E+3 9.9949941E-1
7.6243380E+3 9.9933565E-1
7.6262310E+3 9.9957716E-1
7.6281580E+3 9.9971455E-1
7.6300180E+3 9.9968531E-1
7.6318550E+3 9.9972232E-1
7.6336980E+3 9.9970509E-1
7.6355980E+3 9.9975100E-1
7.6374560E+3 9.9977347E-1
7.6392580E+3 9.9978936E-1
7.6411470E+3 9.9986797E-1
7.6430610E+3 9.9989910E-1
7.6449290E+3 9.9982421E-1
7.6468090E+3 9.9996344E-1
7.6486940E+3 9.9986415E-1
7.6506470E+3 9.9986205E-1
7.6525860E+3 9.9985748E-1
7.6544750E+3 9.9994215E-1
7.6564140E+3 9.9993121E-1
7.6583690E+3 9.9998737E-1
7.6603170E+3 1.0000310E+0
7.6622150E+3 9.9991886E-1
7.6640720E+3 9.9988906E-1
7.6660330E+3 1.0000266E+0
7.6679850E+3 1.0000335E+0
7.6698830E+3 1.0000135E+0
7.6717920E+3 9.9996697E-1
7.6737090E+3 1.0000254E+0
7.6757090E+3 1.0001087E+0
7.6776760E+3 1.0001589E+0
7.6796150E+3 1.0000909E+0
7.6815960E+3 1.0001516E+0
7.6835840E+3 1.0001383E+0
7.6855830E+3 1.0001804E+0
7.6875390E+3 1.0002467E+0
7.6894680E+3 1.0002777E+0
7.6914590E+3 1.0002842E+0
7.6934770E+3 1.0003745E+0
7.6954770E+3 1.0004483E+0
7.6974600E+3 1.0003967E+0
7.6994220E+3 1.0005143E+0
7.7014860E+3 1.0005504E+0
7.7035630E+3 1.0006107E+0
7.7056000E+3 1.0007010E+0
7.7076210E+3 1.0006148E+0
7.7095950E+3 1.0006384E+0
7.7116520E+3 1.0006933E+0
7.7137070E+3 1.0007883E+0
7.7157310E+3 1.0007479E+0
7.7177110E+3 1.0007187E+0
7.7196630E+3 1.0007025E+0
7.7217140E+3 1.0008362E+0
7.7237950E+3 1.0008262E+0
7.7258380E+3 1.0007940E+0
7.7278730E+3 1.0007331E+0
7.7298650E+3 1.0006080E+0
7.7319590E+3 1.0006374E+0
7.7340310E+3 1.0007252E+0
7.7360740E+3 1.0005787E+0
7.7380970E+3 1.0004965E+0
7.7400630E+3 1.0003862E+0
7.7421370E+3 1.0004934E+0
7.7442260E+3 1.0004395E+0
7.7462700E+3 1.0002907E+0
7.7482990E+3 1.0002976E+0
7.7503040E+3 1.0001753E+0
7.7524170E+3 1.0002339E+0
7.7545400E+3 1.0003250E+0
7.7566550E+3 1.0003613E+0
7.7587210E+3 1.0004054E+0
7.7607540E+3 1.0003161E+0
7.7628720E+3 1.0002825E+0
7.7649750E+3 1.0003199E+0
7.7670700E+3 1.0003555E+0
7.7691710E+3 1.0004248E+0
7.7711780E+3 1.0003933E+0
7.7732610E+3 1.0003823E+0
7.7753640E+3 1.0005145E+0
7.7774710E+3 1.0004330E+0
7.7795900E+3 1.0004782E+0
7.7816900E+3 1.0004931E+0
7.7838170E+3 1.0004418E+0
7.7859010E+3 1.0002220E+0
7.7880370E+3 1.0004547E+0
7.7901450E+3 1.0000150E+0
7.7922000E+3 1.0006367E+0
7.7943150E+3 1.0005945E+0
7.7963990E+3 1.0003884E+0
7.7985800E+3 1.0003384E+0
7.8007660E+3 1.0005268E+0
7.8029290E+3 1.0004678E+0
7.8050860E+3 1.0004148E+0
7.8072370E+3 1.0003988E+0
7.8094380E+3 1.0003381E+0
7.8116320E+3 1.0003592E+0
7.8138210E+3 1.0002869E+0
7.8159840E+3 1.0002842E+0
7.8180920E+3 1.0002518E+0
7.8202610E+3 1.0001945E+0
7.8223920E+3 1.0002463E+0
7.8246190E+3 1.0002536E+0
7.8268530E+3 1.0002455E+0
7.8290400E+3 1.0002600E+0
7.8312200E+3 1.0001873E+0
7.8333580E+3 9.9999280E-1
7.8355840E+3 1.0000429E+0
7.8377940E+3 1.0000405E+0
7.8399990E+3 1.0000495E+0
7.8421790E+3 1.0000438E+0
7.8443060E+3 9.9993689E-1
7.8464770E+3 1.0000318E+0
