#%Name: Illite
#%Empirical formula:
#%Mineral group: 
#%Xtal system: 
#%Edge: K
#%Ref/notes:Fe reference from Jacob Frommer and Andreas Vogelin (ETH-Zurich).  
#%Ref/notes:The smectite, illite and chlorite come from the Clay Mineral Society and are characterized by their designations SWy2, IMt1 and CCa2.
#%Ref/notes:The .xmu files are as-recieved from ETH.  All other files have had an energy shift of 1.15eV applied to bring
#%Ref/notes:them into line with our standard of Fe metal = 7110.75eV.
#%Ref/notes:The .b files are done with Manceau E0 (halfway up the edge) and k^3 weighting.
#%Ref/notes:Pre-edge subtraction: In k-space&Background remove, do Transmission Fit, then polish with Transmission+Edge fit to yield .t files.
#%Ref/notes:Post-edge normalization (.e):  Since these are long transmission scans, we get a curvy background. This background is straigher when we make the transformation x = E^(-2.7), which is a rough approximation for how absorption goes with energy.  Thus, we read the .t file into 2-Column Editor, make this transformation (which can be done in 3 mouse clicks), and run a linear background through the tail of the data.  Divide by this and go back to E (another 3 clicks) and run a 2nd-order polynomial through the data, choosing the start point so that the background goes nicely through the tail.  This removes a small amount of curvature from the far post-edge region.  Divide by the resulting background and the result is the .e file.
===============================
6.9772570E+3 -1.2996322E-5
6.9792210E+3 3.5740694E-4
6.9811900E+3 4.5406058E-4
6.9831860E+3 4.8569567E-4
6.9851570E+3 4.0744993E-4
6.9871080E+3 3.8912400E-4
6.9890940E+3 4.0318883E-4
6.9910540E+3 6.6024411E-4
6.9930220E+3 7.0791440E-4
6.9950610E+3 5.5457584E-4
6.9971080E+3 6.0752033E-4
6.9991380E+3 1.1239303E-3
7.0011930E+3 7.9696370E-4
7.0031820E+3 9.1694735E-4
7.0051630E+3 1.0715026E-3
7.0071580E+3 1.3620167E-3
7.0091440E+3 9.8564455E-4
7.0111200E+3 7.2998058E-4
7.0131120E+3 1.1748963E-3
7.0150890E+3 1.2585746E-3
7.0171040E+3 1.2454824E-3
7.0191330E+3 1.0806025E-3
7.0211710E+3 8.8089083E-4
7.0231490E+3 9.5135356E-4
7.0251500E+3 1.4467626E-3
7.0271240E+3 1.0681923E-3
7.0290880E+3 1.6741056E-3
7.0310650E+3 1.1468080E-3
7.0330160E+3 8.6510297E-4
7.0350340E+3 1.3750084E-3
7.0370410E+3 1.5159018E-3
7.0390920E+3 1.3321010E-3
7.0410960E+3 1.4940166E-3
7.0431480E+3 1.6467180E-3
7.0451410E+3 1.5978928E-3
7.0471330E+3 1.2908156E-3
7.0491110E+3 1.5062549E-3
7.0510960E+3 1.8088190E-3
7.0530540E+3 1.9558200E-3
7.0550590E+3 2.1800813E-3
7.0570480E+3 1.8897996E-3
7.0590930E+3 1.9212395E-3
7.0610970E+3 2.1787562E-3
7.0631670E+3 2.2801664E-3
7.0651310E+3 2.2595226E-3
7.0671390E+3 2.2671038E-3
7.0691250E+3 2.3980583E-3
7.0710900E+3 2.3455028E-3
7.0730580E+3 2.5596715E-3
7.0750400E+3 2.9856896E-3
7.0770300E+3 2.6894318E-3
7.0790060E+3 3.0474038E-3
7.0810670E+3 3.1268350E-3
7.0830900E+3 2.9624238E-3
7.0850970E+3 3.7582790E-3
7.0871050E+3 3.6319958E-3
7.0890770E+3 4.0553315E-3
7.0910660E+3 4.3642220E-3
7.0930280E+3 4.9181693E-3
7.0949900E+3 4.9829671E-3
7.0969900E+3 5.6186403E-3
7.0972100E+3 5.7397937E-3
7.0974510E+3 5.9140769E-3
7.0977100E+3 5.7999513E-3
7.0979940E+3 5.9157397E-3
7.0982390E+3 6.0268999E-3
7.0984770E+3 5.9544089E-3
7.0987110E+3 6.1311423E-3
7.0989380E+3 6.0175868E-3
7.0991750E+3 6.2306446E-3
7.0994430E+3 6.5506232E-3
7.0997270E+3 6.7452916E-3
7.1000020E+3 6.6717124E-3
7.1002510E+3 6.9265103E-3
7.1004910E+3 7.0048247E-3
7.1007260E+3 7.2211069E-3
7.1009740E+3 6.7350928E-3
7.1012210E+3 7.2343361E-3
7.1015020E+3 7.2049281E-3
7.1017670E+3 7.6918268E-3
7.1020130E+3 7.8302203E-3
7.1022620E+3 8.0423700E-3
7.1025180E+3 8.0049972E-3
7.1027560E+3 7.9500098E-3
7.1030050E+3 8.2339916E-3
7.1032430E+3 8.6424543E-3
7.1035140E+3 8.8557918E-3
7.1037780E+3 8.6586305E-3
7.1040560E+3 8.8992233E-3
7.1043220E+3 9.2865096E-3
7.1045620E+3 9.3174747E-3
7.1047960E+3 9.4041023E-3
7.1050180E+3 9.3363201E-3
7.1052610E+3 9.5786330E-3
7.1055490E+3 9.9852548E-3
7.1058200E+3 1.0233840E-2
7.1060840E+3 1.1000818E-2
7.1063040E+3 1.0484024E-2
7.1065440E+3 1.0731247E-2
7.1067740E+3 1.1648367E-2
7.1070220E+3 1.1295797E-2
7.1072870E+3 1.1542645E-2
7.1075670E+3 1.1847425E-2
7.1078190E+3 1.2193110E-2
7.1080570E+3 1.2704767E-2
7.1083100E+3 1.3221729E-2
7.1085490E+3 1.3281284E-2
7.1087910E+3 1.4154801E-2
7.1090370E+3 1.4312834E-2
7.1092870E+3 1.5368022E-2
7.1095490E+3 1.6019968E-2
7.1098020E+3 1.6901040E-2
7.1100760E+3 1.8495514E-2
7.1103040E+3 1.9629769E-2
7.1105550E+3 2.1406426E-2
7.1107730E+3 2.2498448E-2
7.1109920E+3 2.4448438E-2
7.1112460E+3 2.6697569E-2
7.1115280E+3 2.9321093E-2
7.1117940E+3 3.2392570E-2
7.1120380E+3 3.5562767E-2
7.1122720E+3 3.8752516E-2
7.1124990E+3 4.0975363E-2
7.1127250E+3 4.2307448E-2
7.1129780E+3 4.3471699E-2
7.1132440E+3 4.4398898E-2
7.1135220E+3 4.5588381E-2
7.1137680E+3 4.6294798E-2
7.1139930E+3 4.5875959E-2
7.1142350E+3 4.5401353E-2
7.1144820E+3 4.3530754E-2
7.1147140E+3 4.2375263E-2
7.1149530E+3 4.1373341E-2
7.1151920E+3 4.0683331E-2
7.1154500E+3 4.0978945E-2
7.1157020E+3 4.1982001E-2
7.1159670E+3 4.3904423E-2
7.1162110E+3 4.6172464E-2
7.1164400E+3 4.8997432E-2
7.1166690E+3 5.3364501E-2
7.1168880E+3 5.8096872E-2
7.1171480E+3 6.3451484E-2
7.1174300E+3 7.1035169E-2
7.1177010E+3 7.9114119E-2
7.1179550E+3 8.7831670E-2
7.1181800E+3 9.7298410E-2
7.1184010E+3 1.0770832E-1
7.1186280E+3 1.1985121E-1
7.1188850E+3 1.3530474E-1
7.1191350E+3 1.5189256E-1
7.1194100E+3 1.7143786E-1
7.1196750E+3 1.9136461E-1
7.1199020E+3 2.1170216E-1
7.1201490E+3 2.3371198E-1
7.1203970E+3 2.5591182E-1
7.1206420E+3 2.7776638E-1
7.1208870E+3 2.9974980E-1
7.1211560E+3 3.2112074E-1
7.1214210E+3 3.4271895E-1
7.1216720E+3 3.6636181E-1
7.1219380E+3 3.9645981E-1
7.1221850E+3 4.3015616E-1
7.1224250E+3 4.6841530E-1
7.1226630E+3 5.0975886E-1
7.1229010E+3 5.5301511E-1
7.1231610E+3 5.9630495E-1
7.1234360E+3 6.4136020E-1
7.1237250E+3 6.8755997E-1
7.1239800E+3 7.2438082E-1
7.1242290E+3 7.5903225E-1
7.1244600E+3 7.8807218E-1
7.1246840E+3 8.1257681E-1
7.1249290E+3 8.3786982E-1
7.1252140E+3 8.6526999E-1
7.1255010E+3 8.9477425E-1
7.1257580E+3 9.2626491E-1
7.1259950E+3 9.6021331E-1
7.1262260E+3 9.9771139E-1
7.1264560E+3 1.0384189E+0
7.1266970E+3 1.0819668E+0
7.1269570E+3 1.1293816E+0
7.1272410E+3 1.1735577E+0
7.1275140E+3 1.2159985E+0
7.1277540E+3 1.2525833E+0
7.1279910E+3 1.2867726E+0
7.1282350E+3 1.3179968E+0
7.1284880E+3 1.3464545E+0
7.1287220E+3 1.3667674E+0
7.1289750E+3 1.3834686E+0
7.1292430E+3 1.3957118E+0
7.1294940E+3 1.4057276E+0
7.1297420E+3 1.4148613E+0
7.1299930E+3 1.4238956E+0
7.1302390E+3 1.4324948E+0
7.1304790E+3 1.4408510E+0
7.1307000E+3 1.4491506E+0
7.1309440E+3 1.4560000E+0
7.1312030E+3 1.4609921E+0
7.1314890E+3 1.4640526E+0
7.1317500E+3 1.4624701E+0
7.1319920E+3 1.4589247E+0
7.1322280E+3 1.4520450E+0
7.1324420E+3 1.4433754E+0
7.1326720E+3 1.4327207E+0
7.1329290E+3 1.4198336E+0
7.1332110E+3 1.4055851E+0
7.1334750E+3 1.3901184E+0
7.1337170E+3 1.3747687E+0
7.1339450E+3 1.3582468E+0
7.1341710E+3 1.3409140E+0
7.1344130E+3 1.3222390E+0
7.1346540E+3 1.3028070E+0
7.1349060E+3 1.2846533E+0
7.1351820E+3 1.2670464E+0
7.1354300E+3 1.2512261E+0
7.1356740E+3 1.2381036E+0
7.1359040E+3 1.2242095E+0
7.1361720E+3 1.2114084E+0
7.1363940E+3 1.2003173E+0
7.1366200E+3 1.1906822E+0
7.1368680E+3 1.1819348E+0
7.1371140E+3 1.1738900E+0
7.1373770E+3 1.1653499E+0
7.1376380E+3 1.1575143E+0
7.1378860E+3 1.1498460E+0
7.1381190E+3 1.1436583E+0
7.1383450E+3 1.1373665E+0
7.1385710E+3 1.1321823E+0
7.1388040E+3 1.1278944E+0
7.1390780E+3 1.1228632E+0
7.1393680E+3 1.1186077E+0
7.1396220E+3 1.1149630E+0
7.1398760E+3 1.1106997E+0
7.1400950E+3 1.1067021E+0
7.1403190E+3 1.1020428E+0
7.1405460E+3 1.0987463E+0
7.1408160E+3 1.0948135E+0
7.1410800E+3 1.0911201E+0
7.1413500E+3 1.0875356E+0
7.1416050E+3 1.0842553E+0
7.1418370E+3 1.0814003E+0
7.1420620E+3 1.0775399E+0
7.1423060E+3 1.0736247E+0
7.1425500E+3 1.0709503E+0
7.1428050E+3 1.0683706E+0
7.1430860E+3 1.0662606E+0
7.1433460E+3 1.0635050E+0
7.1435960E+3 1.0624121E+0
7.1438490E+3 1.0608754E+0
7.1441080E+3 1.0597011E+0
7.1443520E+3 1.0580779E+0
7.1445990E+3 1.0568362E+0
7.1448550E+3 1.0559365E+0
7.1451180E+3 1.0539108E+0
7.1453810E+3 1.0513567E+0
7.1456430E+3 1.0486441E+0
7.1459080E+3 1.0439006E+0
7.1461490E+3 1.0398161E+0
7.1463850E+3 1.0346595E+0
7.1466200E+3 1.0297328E+0
7.1468790E+3 1.0229907E+0
7.1471390E+3 1.0158987E+0
7.1474400E+3 1.0075974E+0
7.1477030E+3 9.9962423E-1
7.1479440E+3 9.9051982E-1
7.1481830E+3 9.8139019E-1
7.1484000E+3 9.7315053E-1
7.1486340E+3 9.6432048E-1
7.1488890E+3 9.5473391E-1
7.1491820E+3 9.4491221E-1
7.1494490E+3 9.3587684E-1
7.1497040E+3 9.2710562E-1
7.1499390E+3 9.1830281E-1
7.1501620E+3 9.1080117E-1
7.1503970E+3 9.0267593E-1
7.1506420E+3 8.9454309E-1
7.1509180E+3 8.8732970E-1
7.1511960E+3 8.8093895E-1
7.1514600E+3 8.7559792E-1
7.1517170E+3 8.6998732E-1
7.1519360E+3 8.6526468E-1
7.1521770E+3 8.6027967E-1
7.1524180E+3 8.5595298E-1
7.1526590E+3 8.5267246E-1
7.1529280E+3 8.4897344E-1
7.1531880E+3 8.4591463E-1
7.1534330E+3 8.4312776E-1
7.1536600E+3 8.4039321E-1
7.1539160E+3 8.3797279E-1
7.1541590E+3 8.3582685E-1
7.1543900E+3 8.3420853E-1
7.1546300E+3 8.3252500E-1
7.1548770E+3 8.3189695E-1
7.1551360E+3 8.3041745E-1
7.1554000E+3 8.2933492E-1
7.1556650E+3 8.2831269E-1
7.1559210E+3 8.2776975E-1
7.1561480E+3 8.2712258E-1
7.1563740E+3 8.2642930E-1
7.1565950E+3 8.2534028E-1
7.1568370E+3 8.2504288E-1
7.1580600E+3 8.2541188E-1
7.1592630E+3 8.2787311E-1
7.1604470E+3 8.3215041E-1
7.1617350E+3 8.3981775E-1
7.1629560E+3 8.5198732E-1
7.1642460E+3 8.6769432E-1
7.1655800E+3 8.8595439E-1
7.1668690E+3 9.0577752E-1
7.1682350E+3 9.2618876E-1
7.1696570E+3 9.4710632E-1
7.1709820E+3 9.6714060E-1
7.1723430E+3 9.8675406E-1
7.1737630E+3 1.0067871E+0
7.1751590E+3 1.0269246E+0
7.1765360E+3 1.0386605E+0
7.1779940E+3 1.0475439E+0
7.1794340E+3 1.0564148E+0
7.1808310E+3 1.0623802E+0
7.1823120E+3 1.0677943E+0
7.1838350E+3 1.0695179E+0
7.1853520E+3 1.0691379E+0
7.1868600E+3 1.0663765E+0
7.1884470E+3 1.0638329E+0
7.1900690E+3 1.0601985E+0
7.1916960E+3 1.0570049E+0
7.1932590E+3 1.0530758E+0
7.1948350E+3 1.0485024E+0
7.1964840E+3 1.0423221E+0
7.1981100E+3 1.0349364E+0
7.1997850E+3 1.0252741E+0
7.2014000E+3 1.0155120E+0
7.2030240E+3 1.0053547E+0
7.2047170E+3 9.9682202E-1
7.2064450E+3 9.8929207E-1
7.2081960E+3 9.8258930E-1
7.2099690E+3 9.7612695E-1
7.2117640E+3 9.7001191E-1
7.2135700E+3 9.6538697E-1
7.2153490E+3 9.6346457E-1
7.2171770E+3 9.6315912E-1
7.2189750E+3 9.6579486E-1
7.2208130E+3 9.7015975E-1
7.2226500E+3 9.7384494E-1
7.2245220E+3 9.7665721E-1
7.2263950E+3 9.7844771E-1
7.2282830E+3 9.7846535E-1
7.2301890E+3 9.7862686E-1
7.2321410E+3 9.7792170E-1
7.2341340E+3 9.7780919E-1
7.2361400E+3 9.7866757E-1
7.2381280E+3 9.7971639E-1
7.2401040E+3 9.8169571E-1
7.2421040E+3 9.8433412E-1
7.2441040E+3 9.8803954E-1
7.2461180E+3 9.9197232E-1
7.2481310E+3 9.9644662E-1
7.2502050E+3 1.0019179E+0
7.2523080E+3 1.0075681E+0
7.2544300E+3 1.0132587E+0
7.2565990E+3 1.0181284E+0
7.2587670E+3 1.0219363E+0
7.2609610E+3 1.0247468E+0
7.2631150E+3 1.0265059E+0
7.2652320E+3 1.0272014E+0
7.2674280E+3 1.0271591E+0
7.2696090E+3 1.0268035E+0
7.2717950E+3 1.0260082E+0
7.2740510E+3 1.0245749E+0
7.2763040E+3 1.0239453E+0
7.2786300E+3 1.0230605E+0
7.2809750E+3 1.0221100E+0
7.2833070E+3 1.0205089E+0
7.2856380E+3 1.0180400E+0
7.2879470E+3 1.0152966E+0
7.2902650E+3 1.0117723E+0
7.2925920E+3 1.0084068E+0
7.2949250E+3 1.0045244E+0
7.2973190E+3 1.0008156E+0
7.2998350E+3 9.9745210E-1
7.3023000E+3 9.9501562E-1
7.3047510E+3 9.9324903E-1
7.3072160E+3 9.9162656E-1
7.3096760E+3 9.9091142E-1
7.3121770E+3 9.9101113E-1
7.3146520E+3 9.9169601E-1
7.3171530E+3 9.9299882E-1
7.3196680E+3 9.9453390E-1
7.3222610E+3 9.9645258E-1
7.3249250E+3 9.9849620E-1
7.3275330E+3 1.0001321E+0
7.3301090E+3 1.0019510E+0
7.3326900E+3 1.0027063E+0
7.3353490E+3 1.0037268E+0
7.3379450E+3 1.0042644E+0
7.3405840E+3 1.0041450E+0
7.3432490E+3 1.0040353E+0
7.3460080E+3 1.0037025E+0
7.3487870E+3 1.0032949E+0
7.3515070E+3 1.0031991E+0
7.3542810E+3 1.0029799E+0
7.3570160E+3 1.0025848E+0
7.3597290E+3 1.0025345E+0
7.3624880E+3 1.0021972E+0
7.3653100E+3 1.0022318E+0
7.3681350E+3 1.0022724E+0
7.3710250E+3 1.0028454E+0
7.3739550E+3 1.0040584E+0
7.3767640E+3 1.0048602E+0
7.3796880E+3 1.0058781E+0
7.3825360E+3 1.0067768E+0
7.3854050E+3 1.0075022E+0
7.3883420E+3 1.0081573E+0
7.3913040E+3 1.0082662E+0
7.3943130E+3 1.0078789E+0
7.3973390E+3 1.0075393E+0
7.4002880E+3 1.0067381E+0
7.4033040E+3 1.0055514E+0
7.4062800E+3 1.0040563E+0
7.4092420E+3 1.0023662E+0
7.4123660E+3 1.0009164E+0
7.4154320E+3 9.9910181E-1
7.4186310E+3 9.9780299E-1
7.4217040E+3 9.9656323E-1
7.4248310E+3 9.9570914E-1
7.4279180E+3 9.9498945E-1
7.4310110E+3 9.9469587E-1
7.4341700E+3 9.9441545E-1
7.4373540E+3 9.9496733E-1
7.4406500E+3 9.9524749E-1
7.4438260E+3 9.9542573E-1
7.4471010E+3 9.9620941E-1
7.4502890E+3 9.9658299E-1
7.4535440E+3 9.9749066E-1
7.4567380E+3 9.9776786E-1
7.4600800E+3 9.9870749E-1
7.4634000E+3 9.9921236E-1
7.4667860E+3 9.9980987E-1
7.4701210E+3 1.0005732E+0
7.4734470E+3 1.0010715E+0
7.4768060E+3 1.0013929E+0
7.4801300E+3 1.0016274E+0
7.4835560E+3 1.0020674E+0
7.4869570E+3 1.0018721E+0
7.4904860E+3 1.0021015E+0
7.4938930E+3 1.0013131E+0
7.4973690E+3 1.0011895E+0
7.5007830E+3 1.0005630E+0
7.5042190E+3 1.0001225E+0
7.5077430E+3 9.9943695E-1
7.5113190E+3 9.9972124E-1
7.5149030E+3 9.9889275E-1
7.5184570E+3 9.9877641E-1
7.5219750E+3 9.9874073E-1
7.5255510E+3 9.9876966E-1
7.5290580E+3 9.9847905E-1
7.5327420E+3 9.9932771E-1
7.5364490E+3 9.9980811E-1
7.5400550E+3 9.9972944E-1
7.5437300E+3 1.0000179E+0
7.5473730E+3 9.9984646E-1
7.5510030E+3 1.0000281E+0
7.5547220E+3 9.9992653E-1
7.5584520E+3 9.9963814E-1
7.5622280E+3 9.9941886E-1
7.5660530E+3 9.9922555E-1
7.5697900E+3 9.9909117E-1
7.5734740E+3 9.9855171E-1
7.5772610E+3 9.9842098E-1
7.5810860E+3 9.9831710E-1
7.5849800E+3 9.9816463E-1
7.5888580E+3 9.9840330E-1
7.5927060E+3 9.9827544E-1
7.5965150E+3 9.9816026E-1
7.6003650E+3 9.9803967E-1
7.6042820E+3 9.9831302E-1
7.6082690E+3 9.9836931E-1
7.6122260E+3 9.9848458E-1
7.6162100E+3 9.9882590E-1
7.6201660E+3 9.9895421E-1
7.6241020E+3 9.9925399E-1
7.6280400E+3 9.9951356E-1
7.6321120E+3 9.9979101E-1
7.6362550E+3 1.0003228E+0
7.6403540E+3 1.0004285E+0
7.6443430E+3 1.0005267E+0
7.6483640E+3 1.0004741E+0
7.6524770E+3 1.0006520E+0
7.6566200E+3 1.0009275E+0
7.6608640E+3 1.0008820E+0
7.6649680E+3 1.0006146E+0
7.6690670E+3 1.0004881E+0
7.6732310E+3 1.0003871E+0
7.6773970E+3 1.0003850E+0
7.6816460E+3 1.0000970E+0
7.6859560E+3 1.0000321E+0
7.6901590E+3 9.9971740E-1
7.6944000E+3 9.9973416E-1
7.6986450E+3 9.9974111E-1
7.7028960E+3 9.9963706E-1
7.7072600E+3 9.9955006E-1
7.7116440E+3 9.9953300E-1
7.7159680E+3 9.9964382E-1
7.7202570E+3 9.9974836E-1
7.7245760E+3 1.0002127E+0
7.7289620E+3 1.0002906E+0
7.7334180E+3 1.0001147E+0
7.7379170E+3 1.0001739E+0
7.7423560E+3 1.0002174E+0
7.7467410E+3 1.0002149E+0
7.7511270E+3 1.0001765E+0
7.7555650E+3 1.0002487E+0
7.7601500E+3 1.0002307E+0
7.7646960E+3 1.0002371E+0
7.7692180E+3 1.0002735E+0
7.7737010E+3 1.0000020E+0
7.7782440E+3 1.0005521E+0
7.7828290E+3 1.0005735E+0
7.7874780E+3 1.0010108E+0
7.7921260E+3 1.0004559E+0
7.7967340E+3 1.0005122E+0
7.8058890E+3 1.0003318E+0
7.8106120E+3 1.0003177E+0
7.8153430E+3 1.0003693E+0
7.8200190E+3 1.0003807E+0
7.8246610E+3 1.0002775E+0
7.8293260E+3 1.0002613E+0
7.8340740E+3 1.0003001E+0
7.8389200E+3 1.0002323E+0
7.8437300E+3 1.0002998E+0
7.8484550E+3 1.0001084E+0
