#%Name: Perovskite
#%Empirical formula: CaTiO3 (Fe)
#%Mineral group: oxides
#%Xtal system: Orthorhombic 
#%Edge: K
#%Sample prep: 
#%Beamline: ALS 10.3.2, HxV slits = 300x20 um
#%Det:  I0=N2, Fluorescence mode (Ge solid state 7elts)
#%Ref/notes:  none
#%Temp: Room temp (28C)
#%Time&date: 7:48 AM 2/19/2006
#%Provider: Matthew A. Marcus, Glenn Waychunas.
#%============================================================
7.0104113E+3 3.6686259E-3
7.0154107E+3 2.6337368E-3
7.0204102E+3 5.5653586E-4
7.0254097E+3 1.5543721E-3
7.0304092E+3 1.8039852E-3
7.0354087E+3 2.2954763E-3
7.0404082E+3 1.5152606E-3
7.0454077E+3 5.2946606E-4
7.0504072E+3 1.7835502E-3
7.0554067E+3 3.4061444E-3
7.0604062E+3 2.4140965E-3
7.0654057E+3 3.3236919E-3
7.0704052E+3 5.1243706E-3
7.0754047E+3 4.4781186E-3
7.0804042E+3 4.2858747E-3
7.0854037E+3 4.7293828E-3
7.0904031E+3 6.8709021E-3
7.0954026E+3 1.0468150E-2
7.0959026E+3 8.9007674E-3
7.0964025E+3 8.3871172E-3
7.0969025E+3 9.1489273E-3
7.0974024E+3 8.2619456E-3
7.0979024E+3 9.7287691E-3
7.0984023E+3 1.1232268E-2
7.0989023E+3 8.0364703E-3
7.0994022E+3 1.0127876E-2
7.0999022E+3 1.2071246E-2
7.1004021E+3 1.0500592E-2
7.1009021E+3 1.0025217E-2
7.1014020E+3 1.1328575E-2
7.1019020E+3 1.1653361E-2
7.1024019E+3 1.1021218E-2
7.1029019E+3 1.1435420E-2
7.1034018E+3 1.1614223E-2
7.1039018E+3 1.4630809E-2
7.1044017E+3 1.2543644E-2
7.1049017E+3 1.5345372E-2
7.1054016E+3 1.4974387E-2
7.1059016E+3 1.5091981E-2
7.1064015E+3 1.6680012E-2
7.1069015E+3 1.6924895E-2
7.1074014E+3 1.6994899E-2
7.1079014E+3 2.0368954E-2
7.1084013E+3 1.8866524E-2
7.1089013E+3 2.0721396E-2
7.1094012E+3 2.4217145E-2
7.1099012E+3 2.5579787E-2
7.1104011E+3 3.3066315E-2
7.1109010E+3 3.9018390E-2
7.1114010E+3 4.6529599E-2
7.1119009E+3 5.8321547E-2
7.1124009E+3 7.2686135E-2
7.1129008E+3 7.4114086E-2
7.1134008E+3 7.8625625E-2
7.1139007E+3 7.7609365E-2
7.1144007E+3 7.7202951E-2
7.1149006E+3 7.8693380E-2
7.1154006E+3 8.3458614E-2
7.1159005E+3 9.3696867E-2
7.1164005E+3 1.0901148E-1
7.1169004E+3 1.3033078E-1
7.1174004E+3 1.4916044E-1
7.1179003E+3 1.7361758E-1
7.1184003E+3 2.0270282E-1
7.1189002E+3 2.5073438E-1
7.1194002E+3 2.9933769E-1
7.1199001E+3 3.4774322E-1
7.1204001E+3 4.0136102E-1
7.1209000E+3 4.4209712E-1
7.1214000E+3 4.7566886E-1
7.1218999E+3 5.2957594E-1
7.1223999E+3 5.7501808E-1
7.1228998E+3 6.2136706E-1
7.1233998E+3 6.7178099E-1
7.1238997E+3 7.1353954E-1
7.1243997E+3 7.6676040E-1
7.1248996E+3 8.2123091E-1
7.1253996E+3 8.8191953E-1
7.1258995E+3 9.4838223E-1
7.1263995E+3 1.0191127E+0
7.1268994E+3 1.0992208E+0
7.1273994E+3 1.2178308E+0
7.1278993E+3 1.3296065E+0
7.1283993E+3 1.4577355E+0
7.1288992E+3 1.5313044E+0
7.1293992E+3 1.5470275E+0
7.1298991E+3 1.5247540E+0
7.1303991E+3 1.4553472E+0
7.1308990E+3 1.3880356E+0
7.1313990E+3 1.3217989E+0
7.1318989E+3 1.2751003E+0
7.1323988E+3 1.2422891E+0
7.1328988E+3 1.2354783E+0
7.1333987E+3 1.2305246E+0
7.1338987E+3 1.2314373E+0
7.1343986E+3 1.2347898E+0
7.1348986E+3 1.2471393E+0
7.1353985E+3 1.2589825E+0
7.1358985E+3 1.2625216E+0
7.1363984E+3 1.2734107E+0
7.1368984E+3 1.2517882E+0
7.1373983E+3 1.2412564E+0
7.1378983E+3 1.2218289E+0
7.1383982E+3 1.2144091E+0
7.1388982E+3 1.2017167E+0
7.1393981E+3 1.1682784E+0
7.1398981E+3 1.1761907E+0
7.1403980E+3 1.1620721E+0
7.1413979E+3 1.1458618E+0
7.1423978E+3 1.1358648E+0
7.1433977E+3 1.1280759E+0
7.1443976E+3 1.1126860E+0
7.1453975E+3 1.0883611E+0
7.1463974E+3 1.0614067E+0
7.1473973E+3 1.0101523E+0
7.1483972E+3 9.7354075E-1
7.1493971E+3 9.4660108E-1
7.1503970E+3 9.2200614E-1
7.1513969E+3 8.9680868E-1
7.1523968E+3 8.9035564E-1
7.1533967E+3 8.6517376E-1
7.1543966E+3 8.7028641E-1
7.1553965E+3 8.5377919E-1
7.1563964E+3 8.3702412E-1
7.1573963E+3 8.4618806E-1
7.1583962E+3 8.4801318E-1
7.1593961E+3 8.4985020E-1
7.1603960E+3 8.6913695E-1
7.1613959E+3 8.7211938E-1
7.1623958E+3 8.8269038E-1
7.1633957E+3 8.9080729E-1
7.1643956E+3 8.9299778E-1
7.1653955E+3 9.1576619E-1
7.1663954E+3 9.3194396E-1
7.1673952E+3 9.5042273E-1
7.1683951E+3 9.4734819E-1
7.1693950E+3 9.6963659E-1
7.1703949E+3 9.9675854E-1
7.1713948E+3 1.0046703E+0
7.1723947E+3 1.0143908E+0
7.1733946E+3 1.0333949E+0
7.1743945E+3 1.0366718E+0
7.1753944E+3 1.0556548E+0
7.1763943E+3 1.0529444E+0
7.1773942E+3 1.0512548E+0
7.1783941E+3 1.0558689E+0
7.1793940E+3 1.0388207E+0
7.1803939E+3 1.0448453E+0
7.1813938E+3 1.0353671E+0
7.1823937E+3 1.0303727E+0
7.1833936E+3 1.0363455E+0
7.1843935E+3 1.0354819E+0
7.1853934E+3 1.0290666E+0
7.1863933E+3 1.0284367E+0
7.1873932E+3 1.0283011E+0
7.1883931E+3 1.0405158E+0
7.1893930E+3 1.0475103E+0
7.1903929E+3 1.0466262E+0
7.1913928E+3 1.0503373E+0
7.1923927E+3 1.0455815E+0
7.1933926E+3 1.0569314E+0
7.1943925E+3 1.0624816E+0
7.1953924E+3 1.0397029E+0
7.1963923E+3 1.0488498E+0
7.1973922E+3 1.0477965E+0
7.1983920E+3 1.0419874E+0
7.1993919E+3 1.0410486E+0
7.2003918E+3 1.0430381E+0
7.2013917E+3 1.0350613E+0
7.2023916E+3 1.0377528E+0
7.2033915E+3 1.0262761E+0
7.2043914E+3 1.0213307E+0
7.2053913E+3 1.0159024E+0
7.2063912E+3 1.0027468E+0
7.2073911E+3 1.0116704E+0
7.2083910E+3 9.9703155E-1
7.2093909E+3 9.9884344E-1
7.2103908E+3 9.8107722E-1
7.2123906E+3 9.8271255E-1
7.2143904E+3 9.9208414E-1
7.2163902E+3 9.7489854E-1
7.2183900E+3 9.6790467E-1
7.2203898E+3 9.6621688E-1
7.2223896E+3 9.6309611E-1
7.2243894E+3 9.6776094E-1
7.2263891E+3 9.8118164E-1
7.2283889E+3 9.8103140E-1
7.2303887E+3 9.8137737E-1
7.2323885E+3 9.7616004E-1
7.2343883E+3 9.7335113E-1
7.2363881E+3 9.6734418E-1
7.2383879E+3 9.7916636E-1
7.2403877E+3 9.7816578E-1
7.2423875E+3 9.7866550E-1
7.2443873E+3 9.7338153E-1
7.2463871E+3 9.8925537E-1
7.2483869E+3 9.9468859E-1
7.2503866E+3 9.9068759E-1
7.2523864E+3 1.0043485E+0
7.2543862E+3 1.0138028E+0
7.2548862E+3 1.0039707E+0
7.2553861E+3 1.0089127E+0
7.2558861E+3 1.0228643E+0
7.2563860E+3 1.0239256E+0
7.2568860E+3 1.0115367E+0
7.2573859E+3 1.0028173E+0
7.2578859E+3 1.0202162E+0
7.2583858E+3 1.0138280E+0
7.2588858E+3 1.0119527E+0
7.2593857E+3 1.0044919E+0
7.2598857E+3 1.0198192E+0
7.2603856E+3 1.0000237E+0
7.2608856E+3 1.0068603E+0
7.2613855E+3 1.0145110E+0
7.2618854E+3 1.0224350E+0
7.2623854E+3 1.0058282E+0
7.2628853E+3 1.0171426E+0
7.2633853E+3 1.0125344E+0
7.2638852E+3 1.0117813E+0
7.2643852E+3 1.0048327E+0
7.2648851E+3 1.0022471E+0
7.2653851E+3 1.0182723E+0
7.2658850E+3 1.0174658E+0
7.2663850E+3 1.0220075E+0
7.2668849E+3 1.0101984E+0
7.2673849E+3 1.0078382E+0
7.2678848E+3 1.0146869E+0
7.2683848E+3 1.0185202E+0
7.2688847E+3 1.0050356E+0
7.2693847E+3 1.0157768E+0
7.2698846E+3 1.0278682E+0
7.2703846E+3 1.0248611E+0
7.2708845E+3 1.0184879E+0
7.2713845E+3 1.0117596E+0
7.2718844E+3 1.0179303E+0
7.2723843E+3 1.0163926E+0
7.2728843E+3 1.0266509E+0
7.2733842E+3 1.0303645E+0
7.2738842E+3 1.0274852E+0
7.2743841E+3 1.0358311E+0
7.2793836E+3 1.0229526E+0
7.2843831E+3 1.0240629E+0
7.2893826E+3 9.9873005E-1
7.2943820E+3 1.0034317E+0
7.2993815E+3 9.9399375E-1
7.3043810E+3 9.9111315E-1
7.3093805E+3 9.9643928E-1
7.3143799E+3 9.8509230E-1
7.3193794E+3 9.9101979E-1
7.3243789E+3 9.8589055E-1
7.3293784E+3 9.8618273E-1
7.3343778E+3 9.9112056E-1
7.3393773E+3 9.8666999E-1
7.3443768E+3 9.8003406E-1
7.3493763E+3 9.8605518E-1
7.3543757E+3 9.8723291E-1
7.3593752E+3 9.8616589E-1
7.3643747E+3 9.8994101E-1
7.3693741E+3 9.9049008E-1
7.3743736E+3 9.9217255E-1
7.3793731E+3 9.9834026E-1
7.3843725E+3 9.9335465E-1
7.3893720E+3 1.0050491E+0
7.3943715E+3 1.0058700E+0
7.3993710E+3 1.0045334E+0
7.4043704E+3 9.9126351E-1
7.4093699E+3 9.7925141E-1
7.4143694E+3 9.8934646E-1
