#%Name: Siderite ITFA component 2
#%Empirical formula: Fe2+(CO3) / Webmineral
#%Mineral group: calcite, Anhydrous Carbonates  
#%Xtal system: Hexagonal   
#%Edge: K
#%Sample prep: powder on kapton tape
#%Beamline: ALS 10.3.2, HxV slits = 100x20 um
#%Det:  I0=N2, Fluorescence mode (Ge solid state 7elts)
#%Ref/notes:  sample provided by Kent Ross, UC Berkeley, EPS, Mineral Collection- USA. XRD confirmed.
#%Temp: Room temp (28C)
#%Time&date: 3:18 AM 6/20/2007
#%Provider: Sirine Fakra, Matthew A. Marcus, Kent Ross.
#%============================================================
7.0127202E+3 2.0377592E-3
7.0229585E+3 1.6182345E-3
7.0331963E+3 2.1761279E-3
7.0434346E+3 2.1890192E-3
7.0536729E+3 2.6489545E-3
7.0639106E+3 3.0587371E-3
7.0741489E+3 3.9420449E-3
7.0843867E+3 5.4065359E-3
7.0946250E+3 8.1634436E-3
7.0948750E+3 8.1412084E-3
7.0951250E+3 8.1015791E-3
7.0953750E+3 8.0708402E-3
7.0956250E+3 8.1354261E-3
7.0958750E+3 8.3241621E-3
7.0961250E+3 8.5207075E-3
7.0963750E+3 8.6575890E-3
7.0966250E+3 8.8182180E-3
7.0968750E+3 9.0421715E-3
7.0971250E+3 9.2277763E-3
7.0973750E+3 9.3138477E-3
7.0976250E+3 9.3702344E-3
7.0978750E+3 9.4716865E-3
7.0981250E+3 9.6648025E-3
7.0983750E+3 9.9203579E-3
7.0986250E+3 1.0051067E-2
7.0988750E+3 9.9855212E-3
7.0991250E+3 9.9530418E-3
7.0993750E+3 1.0108144E-2
7.0996250E+3 1.0353262E-2
7.0998750E+3 1.0613709E-2
7.1001250E+3 1.0938325E-2
7.1003750E+3 1.1344731E-2
7.1006250E+3 1.1746072E-2
7.1008750E+3 1.2032274E-2
7.1011250E+3 1.2073358E-2
7.1013750E+3 1.1857348E-2
7.1016250E+3 1.1635818E-2
7.1018750E+3 1.1614258E-2
7.1021250E+3 1.1820912E-2
7.1023750E+3 1.2189240E-2
7.1026250E+3 1.2497587E-2
7.1028750E+3 1.2639348E-2
7.1031250E+3 1.2802815E-2
7.1033750E+3 1.3098643E-2
7.1036250E+3 1.3384280E-2
7.1038750E+3 1.3583190E-2
7.1041250E+3 1.3834445E-2
7.1043750E+3 1.4212936E-2
7.1046250E+3 1.4592939E-2
7.1048750E+3 1.4905014E-2
7.1051250E+3 1.5258618E-2
7.1053750E+3 1.5705306E-2
7.1056250E+3 1.6120461E-2
7.1058750E+3 1.6398795E-2
7.1061250E+3 1.6527448E-2
7.1063750E+3 1.6619053E-2
7.1066250E+3 1.7030024E-2
7.1068750E+3 1.7848579E-2
7.1071250E+3 1.8516305E-2
7.1073750E+3 1.8724572E-2
7.1076250E+3 1.8885215E-2
7.1078750E+3 1.9358187E-2
7.1081250E+3 2.0188451E-2
7.1083750E+3 2.1226012E-2
7.1086250E+3 2.1991027E-2
7.1088750E+3 2.2305110E-2
7.1091250E+3 2.2729630E-2
7.1093750E+3 2.3725516E-2
7.1096250E+3 2.5331231E-2
7.1098750E+3 2.7458024E-2
7.1101250E+3 2.9862364E-2
7.1103750E+3 3.2437646E-2
7.1106250E+3 3.5412224E-2
7.1108750E+3 3.8769264E-2
7.1111250E+3 4.1874914E-2
7.1113750E+3 4.4180617E-2
7.1116250E+3 4.5491490E-2
7.1118750E+3 4.5804306E-2
7.1121250E+3 4.5428882E-2
7.1123750E+3 4.4847148E-2
7.1126250E+3 4.4819774E-2
7.1128750E+3 4.5664578E-2
7.1131250E+3 4.6679863E-2
7.1133750E+3 4.7273732E-2
7.1136250E+3 4.7367846E-2
7.1138750E+3 4.7104502E-2
7.1141250E+3 4.6955057E-2
7.1143750E+3 4.7364409E-2
7.1146250E+3 4.8629881E-2
7.1148750E+3 5.0724126E-2
7.1151250E+3 5.2974115E-2
7.1153750E+3 5.5242117E-2
7.1156250E+3 5.8697055E-2
7.1158750E+3 6.4077487E-2
7.1161250E+3 7.0857619E-2
7.1163750E+3 7.8414121E-2
7.1166250E+3 8.6261835E-2
7.1168750E+3 9.4580958E-2
7.1171250E+3 1.0491449E-1
7.1173750E+3 1.1788263E-1
7.1176250E+3 1.3179819E-1
7.1178750E+3 1.4578818E-1
7.1181250E+3 1.6131052E-1
7.1183750E+3 1.7950767E-1
7.1186250E+3 2.0023670E-1
7.1188750E+3 2.2340402E-1
7.1191250E+3 2.4936559E-1
7.1193750E+3 2.7910354E-1
7.1196250E+3 3.1479293E-1
7.1198750E+3 3.5810292E-1
7.1201250E+3 4.0932103E-1
7.1203750E+3 4.6803427E-1
7.1206250E+3 5.3273236E-1
7.1208750E+3 6.0287408E-1
7.1211250E+3 6.8023630E-1
7.1213750E+3 7.6662327E-1
7.1216250E+3 8.6326610E-1
7.1218750E+3 9.6802600E-1
7.1221250E+3 1.0718899E+0
7.1223750E+3 1.1682419E+0
7.1226250E+3 1.2572628E+0
7.1228750E+3 1.3384961E+0
7.1231250E+3 1.4083979E+0
7.1233750E+3 1.4656732E+0
7.1236250E+3 1.5145059E+0
7.1238750E+3 1.5578975E+0
7.1241250E+3 1.5949702E+0
7.1243750E+3 1.6251064E+0
7.1246250E+3 1.6492369E+0
7.1248750E+3 1.6686341E+0
7.1251250E+3 1.6848744E+0
7.1253750E+3 1.6985482E+0
7.1256250E+3 1.7081223E+0
7.1258750E+3 1.7115951E+0
7.1261250E+3 1.7065412E+0
7.1263750E+3 1.6903822E+0
7.1266250E+3 1.6603519E+0
7.1268750E+3 1.6165580E+0
7.1271250E+3 1.5650846E+0
7.1273750E+3 1.5106653E+0
7.1276250E+3 1.4537255E+0
7.1278750E+3 1.3954153E+0
7.1281250E+3 1.3394741E+0
7.1283750E+3 1.2894146E+0
7.1286250E+3 1.2476148E+0
7.1288750E+3 1.2149008E+0
7.1291250E+3 1.1891902E+0
7.1293750E+3 1.1676250E+0
7.1296250E+3 1.1465029E+0
7.1298750E+3 1.1242425E+0
7.1301250E+3 1.1038253E+0
7.1303750E+3 1.0880264E+0
7.1306250E+3 1.0780403E+0
7.1308750E+3 1.0737840E+0
7.1311250E+3 1.0729604E+0
7.1313750E+3 1.0741757E+0
7.1316250E+3 1.0784309E+0
7.1318750E+3 1.0858447E+0
7.1321250E+3 1.0941357E+0
7.1323750E+3 1.1011231E+0
7.1326250E+3 1.1054342E+0
7.1328750E+3 1.1063426E+0
7.1331250E+3 1.1042365E+0
7.1333750E+3 1.0993553E+0
7.1336250E+3 1.0913622E+0
7.1338750E+3 1.0804986E+0
7.1341250E+3 1.0683258E+0
7.1343750E+3 1.0565774E+0
7.1346250E+3 1.0470037E+0
7.1348750E+3 1.0400506E+0
7.1351250E+3 1.0335201E+0
7.1353750E+3 1.0261978E+0
7.1356250E+3 1.0195076E+0
7.1358750E+3 1.0143140E+0
7.1361250E+3 1.0097036E+0
7.1363750E+3 1.0051055E+0
7.1366250E+3 1.0010758E+0
7.1368750E+3 9.9805918E-1
7.1371250E+3 9.9599877E-1
7.1373750E+3 9.9454974E-1
7.1376250E+3 9.9290480E-1
7.1378750E+3 9.8978711E-1
7.1381250E+3 9.8309988E-1
7.1383750E+3 9.7275492E-1
7.1386250E+3 9.6289572E-1
7.1388750E+3 9.5599523E-1
7.1391250E+3 9.5014801E-1
7.1393750E+3 9.4404008E-1
7.1396250E+3 9.3860111E-1
7.1398750E+3 9.3478931E-1
7.1401250E+3 9.3307758E-1
7.1403750E+3 9.3348280E-1
7.1406250E+3 9.3522309E-1
7.1408750E+3 9.3742116E-1
7.1411250E+3 9.3920040E-1
7.1413750E+3 9.3977124E-1
7.1416250E+3 9.3851828E-1
7.1418750E+3 9.3484688E-1
7.1421250E+3 9.2816583E-1
7.1423750E+3 9.1834359E-1
7.1426250E+3 9.0616627E-1
7.1428750E+3 8.9252895E-1
7.1431250E+3 8.7832489E-1
7.1433750E+3 8.6420013E-1
7.1436250E+3 8.5030837E-1
7.1438750E+3 8.3674498E-1
7.1441250E+3 8.2360579E-1
7.1443750E+3 8.1105021E-1
7.1446250E+3 7.9936399E-1
7.1448750E+3 7.8884780E-1
7.1451250E+3 7.7980082E-1
7.1453750E+3 7.7232809E-1
7.1456250E+3 7.6614965E-1
7.1458750E+3 7.6094017E-1
7.1461250E+3 7.5637476E-1
7.1463750E+3 7.5218623E-1
7.1466250E+3 7.4822153E-1
7.1468750E+3 7.4434103E-1
7.1471250E+3 7.4040580E-1
7.1473750E+3 7.3636495E-1
7.1476250E+3 7.3234146E-1
7.1478750E+3 7.2847870E-1
7.1481250E+3 7.2491997E-1
7.1483750E+3 7.2180022E-1
7.1486250E+3 7.1923800E-1
7.1488750E+3 7.1734990E-1
7.1491250E+3 7.1625183E-1
7.1493750E+3 7.1597031E-1
7.1496250E+3 7.1635615E-1
7.1498750E+3 7.1723967E-1
7.1501250E+3 7.1845167E-1
7.1503750E+3 7.1988094E-1
7.1506250E+3 7.2153010E-1
7.1508750E+3 7.2341500E-1
7.1511250E+3 7.2555162E-1
7.1513750E+3 7.2797354E-1
7.1516250E+3 7.3074877E-1
7.1518750E+3 7.3394932E-1
7.1521250E+3 7.3764709E-1
7.1523750E+3 7.4190158E-1
7.1526250E+3 7.4674806E-1
7.1528750E+3 7.5221902E-1
7.1531250E+3 7.5834611E-1
7.1533750E+3 7.6505909E-1
7.1536250E+3 7.7208921E-1
7.1538750E+3 7.7914483E-1
7.1541250E+3 7.8593603E-1
7.1543750E+3 7.9238504E-1
7.1546250E+3 7.9882653E-1
7.1548750E+3 8.0564262E-1
7.1551250E+3 8.1321397E-1
7.1553750E+3 8.2174577E-1
7.1556250E+3 8.3110280E-1
7.1558750E+3 8.4111078E-1
7.1561250E+3 8.5159572E-1
7.1563750E+3 8.6241784E-1
7.1566250E+3 8.7350366E-1
7.1568750E+3 8.8478723E-1
7.1571250E+3 8.9620198E-1
7.1573750E+3 9.0760230E-1
7.1576250E+3 9.1868994E-1
7.1578750E+3 9.2914927E-1
7.1581250E+3 9.3866591E-1
7.1583750E+3 9.4707752E-1
7.1586250E+3 9.5451470E-1
7.1588750E+3 9.6114141E-1
7.1591250E+3 9.6712074E-1
7.1593750E+3 9.7251606E-1
7.1596250E+3 9.7719892E-1
7.1607197E+3 9.8702800E-1
7.1618345E+3 9.9103235E-1
7.1629683E+3 9.9873196E-1
7.1641221E+3 1.0159701E+0
7.1652954E+3 1.0330387E+0
7.1664888E+3 1.0521351E+0
7.1677012E+3 1.0703550E+0
7.1689336E+3 1.0813773E+0
7.1701851E+3 1.0905804E+0
7.1714565E+3 1.0987528E+0
7.1727480E+3 1.0881263E+0
7.1740586E+3 1.0740775E+0
7.1753887E+3 1.0509678E+0
7.1767388E+3 1.0362635E+0
7.1781084E+3 1.0293247E+0
7.1794976E+3 1.0202277E+0
7.1809067E+3 1.0111565E+0
7.1823350E+3 1.0093048E+0
7.1837832E+3 1.0139430E+0
7.1852510E+3 1.0149583E+0
7.1867383E+3 1.0161119E+0
7.1882451E+3 1.0116681E+0
7.1897715E+3 1.0095083E+0
7.1913179E+3 1.0040706E+0
7.1928838E+3 9.8818875E-1
7.1944692E+3 9.6432626E-1
7.1960742E+3 9.4599880E-1
7.1976987E+3 9.3406405E-1
7.1993433E+3 9.2276351E-1
7.2010068E+3 9.2053508E-1
7.2026904E+3 9.2306045E-1
7.2043936E+3 9.2715954E-1
7.2061167E+3 9.3056538E-1
7.2078589E+3 9.3973323E-1
7.2096211E+3 9.4058593E-1
7.2114028E+3 9.4574923E-1
7.2132041E+3 9.5213495E-1
7.2150249E+3 9.6291571E-1
7.2168652E+3 9.7472480E-1
7.2187256E+3 9.8535501E-1
7.2206055E+3 9.8693711E-1
7.2225049E+3 9.8126718E-1
7.2244238E+3 9.7640849E-1
7.2263623E+3 9.7711890E-1
7.2283208E+3 9.7896437E-1
7.2302983E+3 9.8067957E-1
7.2322959E+3 9.8174925E-1
7.2343130E+3 9.8354752E-1
7.2363501E+3 9.9387861E-1
7.2384062E+3 9.9914127E-1
7.2404824E+3 1.0033354E+0
7.2425781E+3 1.0103025E+0
7.2446934E+3 1.0105452E+0
7.2468281E+3 1.0178495E+0
7.2489824E+3 1.0256044E+0
7.2511567E+3 1.0311983E+0
7.2533506E+3 1.0348048E+0
7.2555640E+3 1.0417584E+0
7.2577969E+3 1.0351468E+0
7.2600493E+3 1.0200766E+0
7.2623218E+3 1.0062685E+0
7.2646133E+3 9.8798439E-1
7.2669248E+3 9.8102202E-1
7.2692559E+3 9.7611431E-1
7.2716069E+3 9.6971973E-1
7.2739771E+3 9.6790559E-1
7.2763672E+3 9.7390837E-1
7.2787769E+3 9.7453000E-1
7.2812061E+3 9.8035165E-1
7.2836548E+3 9.8719067E-1
7.2861230E+3 9.8705417E-1
7.2886113E+3 9.8271364E-1
7.2911191E+3 9.8070857E-1
7.2936465E+3 9.8227063E-1
7.2961934E+3 9.8627623E-1
7.2987598E+3 9.9110849E-1
7.3013462E+3 9.9500581E-1
7.3039517E+3 9.9669049E-1
7.3065771E+3 9.9552765E-1
7.3092222E+3 9.9307880E-1
7.3118872E+3 9.9072465E-1
7.3145713E+3 9.8708122E-1
7.3172754E+3 9.8247427E-1
7.3199985E+3 9.8242478E-1
7.3227417E+3 9.8777396E-1
7.3255049E+3 9.9139209E-1
7.3282871E+3 9.9182449E-1
7.3310894E+3 9.9330331E-1
7.3339106E+3 9.9661089E-1
7.3367520E+3 1.0006932E+0
7.3396133E+3 1.0054320E+0
7.3424937E+3 1.0108103E+0
7.3453936E+3 1.0163536E+0
7.3483135E+3 1.0199055E+0
7.3512529E+3 1.0179953E+0
7.3542119E+3 1.0114355E+0
7.3571904E+3 1.0035274E+0
7.3601890E+3 9.9815637E-1
7.3632065E+3 9.9538053E-1
7.3662441E+3 9.9049094E-1
7.3693013E+3 9.8539936E-1
7.3723779E+3 9.8417843E-1
7.3754746E+3 9.8544018E-1
7.3785903E+3 9.8713876E-1
7.3817261E+3 9.8785343E-1
7.3848813E+3 9.8721000E-1
7.3880562E+3 9.8543257E-1
7.3912510E+3 9.8329537E-1
7.3944648E+3 9.8332070E-1
7.3976987E+3 9.8740062E-1
7.4009521E+3 9.9290167E-1
